223
Integration time [ms]:  15,000
Averaging Nr. [scans]: 10
Smoothing Nr. [pixels]: 0
Data measured with spectrometer [name]: 1204091U1
Wave   ;Sample   ;Dark     ;Reference;Reflectance
[nm]   ;[counts] ;[counts] ;[counts] ;[%]

1014,48;13516,000; 2348,500;19637,500;64,59309
1019,01;14169,000; 2352,700;20829,700;63,95140
1023,54;14799,800; 2377,000;21962,200;63,42953
1028,07;15346,300; 2352,700;23028,700;62,84388
1032,59;15940,600; 2345,300;24165,800;62,30517
1037,10;16720,300; 2317,300;25614,800;61,82208
1041,62;17342,500; 2350,000;26799,400;61,32052
1046,12;18051,200; 2427,500;28080,800;60,90328
1050,62;18443,700; 2344,700;28925,600;60,56605
1055,12;18868,200; 2300,600;29808,600;60,22830
1059,62;19345,000; 2304,000;30750,500;59,90544
1064,10;19986,500; 2352,400;31934,300;59,61111
1068,59;20465,800; 2395,400;32879,900;59,27734
1073,07;21006,200; 2329,700;33988,100;58,99382
1077,54;21430,500; 2333,200;34909,400;58,62347
1082,01;22001,600; 2383,100;36084,400;58,21289
1086,48;22394,900; 2367,300;37013,200;57,80655
1090,94;22615,300; 2303,100;37697,100;57,38882
1095,39;23248,000; 2435,000;38991,300;56,93410
1099,85;23704,500; 2333,800;40179,000;56,46872
1104,29;24062,600; 2343,900;41108,400;56,02729
1108,73;24394,400; 2303,100;42037,300;55,59770
1113,17;24682,900; 2407,700;42761,500;55,19976
1117,61;24892,600; 2355,500;43454,900;54,83559
1122,03;25114,500; 2409,900;44116,600;54,43874
1126,46;25223,500; 2310,600;44683,800;54,07404
1130,88;25312,000; 2301,200;45196,100;53,64461
1135,29;25493,100; 2423,100;45857,400;53,11470
1139,70;25455,200; 2288,100;46461,700;52,44558
1144,11;25417,000; 2306,000;47061,800;51,63800
1148,51;25327,800; 2313,600;47677,600;50,73230
1152,90;25059,500; 2332,800;47946,200;49,82461
1157,29;24797,400; 2292,900;48421,700;48,78622
1161,68;24330,000; 2313,100;48619,300;47,54633
1166,06;23804,400; 2309,600;48732,900;46,30175
1170,44;23356,000; 2366,100;48547,000;45,45147
1174,81;22609,000; 2318,600;47745,300;44,66624
1179,18;22001,200; 2329,700;47463,900;43,58447
1183,54;21219,100; 2345,800;47060,900;42,20789
1187,90;20583,000; 2377,500;46950,700;40,84405
1192,25;19660,200; 2344,700;46149,700;39,52859
1196,60;18785,000; 2296,300;45763,400;37,93375
1200,94;17931,700; 2354,600;45323,500;36,25203
1205,28;17021,600; 2332,300;44562,200;34,78412
1209,62;16450,600; 2337,500;44056,300;33,82911
1213,95;16286,200; 2380,000;43765,500;33,60162
1218,27;16292,500; 2311,400;43022,100;34,34257
1222,59;16618,600; 2400,700;42056,700;35,85309
1226,91;17100,800; 2335,900;41649,600;37,55663
1231,22;17280,800; 2314,200;40767,800;38,92119
1235,52;17268,500; 2271,300;39901,100;39,85458
1239,82;17305,000; 2322,400;39388,100;40,42174
1244,12;17056,500; 2318,100;38438,000;40,80410
1248,41;16934,500; 2354,100;37852,300;41,07363
1252,70;16562,400; 2253,500;37010,900;41,16792
1256,98;16462,600; 2299,300;36667,700;41,21024
1261,26;16283,300; 2367,800;36177,100;41,15879
1265,53;15808,400; 2238,400;35319,900;41,01991
1269,80;15667,200; 2285,700;34968,200;40,94393
1274,06;15399,800; 2342,500;34372,200;40,76623
1278,32;15068,900; 2321,300;33766,300;40,53935
1282,57;14853,000; 2318,100;33423,400;40,29828
1286,82;14543,400; 2307,600;32829,200;40,08899
1291,06;14274,300; 2356,700;32275,900;39,83262
1295,30;14045,700; 2338,100;31892,600;39,61360
1299,53;13880,600; 2338,200;31647,500;39,38136
1303,76;13575,000; 2323,600;31079,700;39,12700
1307,99;13352,500; 2367,800;30595,000;38,91530
1312,20;13068,900; 2359,900;30024,100;38,71068
1316,42;12577,000; 2280,800;29032,600;38,48788
1320,63;12317,800; 2300,900;28458,500;38,29442
1324,83;11964,900; 2245,000;27777,100;38,06933
1329,03;11719,500; 2317,800;27170,400;37,82984
1333,23;11426,000; 2274,500;26672,500;37,50922
1337,42;11243,700; 2337,300;26255,200;37,23738
1341,60;10885,800; 2270,000;25620,600;36,89755
1345,78;10652,200; 2322,700;25115,000;36,54524
1349,96;10286,500; 2241,600;24490,500;36,15864
1354,13; 9944,000; 2280,700;23745,200;35,70221
1358,29; 9578,200; 2244,300;23082,400;35,19467
1362,46; 9237,800; 2319,600;22366,700;34,50973
1366,61; 8895,500; 2323,300;21817,100;33,71431
1370,76; 8481,300; 2261,900;21157,200;32,91506
1374,91; 8198,600; 2372,400;20568,000;32,01983
1379,05; 7745,600; 2274,100;19879,800;31,07800
1383,18; 7639,200; 2400,400;19767,200;30,16560
1387,32; 7315,900; 2240,200;19676,200;29,11046
1391,44; 7221,200; 2273,200;19905,300;28,06245
1395,56; 7364,700; 2416,900;20153,000;27,89678
1399,68; 7313,800; 2211,300;20249,800;28,28672
1403,79; 7409,300; 2272,300;20517,600;28,15520
1407,90; 7286,800; 2245,600;20456,300;27,68263
1412,00; 7260,700; 2271,700;20615,900;27,19661
1416,10; 7226,600; 2318,300;20574,800;26,88522
1420,19; 7150,700; 2266,200;20394,400;26,94421
1424,27; 7148,400; 2289,200;20322,000;26,94645
1428,36; 7134,800; 2300,300;20186,500;27,02922
1432,43; 7117,700; 2322,800;20034,000;27,07270
1436,50; 7008,200; 2262,400;19772,900;27,10260
1440,57; 7072,000; 2312,900;19797,100;27,21943
1444,63; 7007,800; 2279,300;19549,200;27,38001
1448,69; 6949,400; 2235,800;19361,400;27,52371
1452,74; 6972,500; 2272,400;19303,800;27,59667
1456,79; 6906,500; 2232,800;19131,100;27,65781
1460,83; 6890,900; 2263,600;18961,800;27,71137
1464,87; 6919,400; 2350,200;18781,300;27,80824
1468,90; 6913,500; 2310,200;18791,500;27,93044
1472,93; 6839,500; 2306,900;18491,800;28,00512
1476,95; 6796,100; 2315,800;18328,800;27,97914
1480,96; 6717,000; 2282,900;18145,100;27,95388
1484,98; 6689,900; 2291,100;18038,800;27,93297
1488,98; 6618,300; 2297,500;17808,200;27,85690
1492,98; 6561,100; 2311,900;17607,700;27,78017
1496,98; 6458,700; 2283,500;17361,700;27,69031
1500,97; 6422,300; 2313,000;17233,100;27,54204
1504,96; 6288,700; 2226,000;17033,400;27,43696
1508,94; 6324,900; 2304,800;17050,500;27,26286
1512,92; 6203,500; 2244,700;16883,900;27,04246
1516,89; 6159,800; 2245,000;16798,700;26,89900
1520,85; 6114,600; 2249,200;16740,000;26,67486
1524,81; 6127,800; 2344,200;16642,100;26,46263
1528,77; 5976,000; 2238,800;16473,000;26,25508
1532,72; 5931,100; 2252,300;16334,200;26,12432
1536,67; 5941,000; 2346,800;16198,700;25,94734
1540,61; 5778,300; 2261,900;15919,100;25,74759
1544,54; 5782,700; 2298,100;15815,100;25,77939
1548,47; 5677,100; 2230,000;15593,800;25,79431
1552,40; 5665,300; 2281,600;15410,700;25,77252
1556,32; 5620,600; 2276,600;15285,000;25,70647
1560,23; 5530,000; 2270,100;14999,600;25,60902
1564,15; 5511,900; 2284,800;14941,900;25,49636
1568,05; 5443,700; 2254,700;14763,000;25,49507
1571,95; 5409,200; 2299,800;14583,200;25,31384
1575,84; 5320,600; 2264,700;14396,200;25,18980
1579,73; 5274,100; 2278,600;14216,200;25,09298
1583,62; 5220,200; 2291,000;14037,500;24,93679
1587,50; 5107,200; 2227,300;13824,900;24,83186
1591,37; 5159,200; 2341,500;13765,300;24,66517
1595,24; 5064,000; 2290,900;13552,200;24,62504
1599,11; 4933,600; 2218,500;13299,400;24,50252
1602,96; 4893,700; 2233,800;13148,300;24,37033
1606,82; 4794,900; 2199,200;12931,900;24,18497
1610,67; 4780,900; 2259,900;12768,200;23,99056
1614,51; 4738,800; 2253,600;12662,100;23,87664
1618,35; 4623,300; 2200,500;12443,200;23,65392
1622,18; 4616,000; 2259,000;12320,000;23,42709
1626,01; 4570,700; 2261,500;12204,900;23,22344
1629,83; 4522,200; 2264,200;12060,300;23,04999
1633,65; 4484,500; 2285,600;11926,300;22,80851
1637,46; 4378,000; 2232,700;11710,000;22,63619
1641,27; 4349,300; 2240,500;11611,900;22,50251
1645,07; 4286,300; 2223,100;11460,600;22,33505
1648,86; 4254,800; 2252,200;11293,600;22,14922
1652,66; 4205,700; 2239,700;11231,400;21,86461
1656,44; 4149,600; 2248,900;11068,200;21,55160
1660,22; 4129,300; 2279,900;10946,100;21,34038
1664,00; 4103,400; 2293,300;10899,400;21,03276
1667,77; 3996,600; 2255,400;10706,100;20,60421
1671,53; 3936,000; 2267,200;10535,100;20,18409
1675,29; 3840,100; 2218,100;10422,700;19,76940
1679,05; 3820,200; 2268,300;10347,700;19,20811
1682,80; 3732,000; 2250,400;10217,700;18,59601
1686,54; 3697,500; 2284,500;10131,800;18,00619
1690,28; 3611,900; 2278,500;10016,500;17,23184
1694,01; 3455,700; 2220,600; 9797,600;16,30065
1697,74; 3371,700; 2222,200; 9685,200;15,40265
1701,46; 3319,200; 2264,100; 9639,900;14,30489
1705,18; 3187,100; 2239,900; 9483,800;13,07583
1708,89; 3034,900; 2178,500; 9321,400;11,98953
1712,60; 3037,500; 2263,700; 9310,100;10,98149
1716,30; 3007,300; 2296,000; 9229,900;10,25830
1720,00; 2939,100; 2272,600; 9164,500; 9,67077
1723,69; 2890,700; 2274,100; 9040,800; 9,11227
1727,38; 2773,000; 2189,500; 8867,100; 8,73817
1731,06; 2830,600; 2257,500; 8834,400; 8,71383
1734,73; 2849,400; 2236,800; 8714,100; 9,45764
1738,40; 2890,100; 2214,400; 8628,400;10,53477
1742,07; 2999,100; 2286,100; 8625,700;11,24677
1745,73; 2990,300; 2245,800; 8533,600;11,84039
1749,38; 3034,400; 2278,500; 8445,700;12,25678

