230
Integration time [ms]:  15,000
Averaging Nr. [scans]: 10
Smoothing Nr. [pixels]: 0
Data measured with spectrometer [name]: 1204091U1
Wave   ;Sample   ;Dark     ;Reference;Reflectance
[nm]   ;[counts] ;[counts] ;[counts] ;[%]

1014,48; 9103,500; 2348,500;19637,500;39,07109
1019,01; 9491,800; 2352,700;20829,700;38,63777
1023,54; 9871,500; 2377,000;21962,200;38,26614
1028,07;10178,500; 2352,700;23028,700;37,84968
1032,59;10522,400; 2345,300;24165,800;37,47439
1037,10;10970,900; 2317,300;25614,800;37,14390
1041,62;11344,500; 2350,000;26799,400;36,78822
1046,12;11794,100; 2427,500;28080,800;36,51226
1050,62;11987,600; 2344,700;28925,600;36,27755
1055,12;12215,000; 2300,600;29808,600;36,04188
1059,62;12494,000; 2304,000;30750,500;35,82163
1064,10;12889,300; 2352,400;31934,300;35,61942
1068,59;13185,500; 2395,400;32879,900;35,39536
1073,07;13474,900; 2329,700;33988,100;35,20456
1077,54;13729,600; 2333,200;34909,400;34,98382
1082,01;14061,700; 2383,100;36084,400;34,65326
1086,48;14294,700; 2367,300;37013,200;34,42658
1090,94;14383,200; 2303,100;37697,100;34,13036
1095,39;14806,900; 2435,000;38991,300;33,84341
1099,85;15027,400; 2333,800;40179,000;33,54085
1104,29;15235,800; 2343,900;41108,400;33,25697
1108,73;15405,700; 2303,100;42037,300;32,97562
1113,17;15622,700; 2407,700;42761,500;32,74785
1117,61;15727,800; 2355,500;43454,900;32,53648
1122,03;15865,100; 2409,900;44116,600;32,26148
1126,46;15885,400; 2310,600;44683,800;32,03629
1130,88;15928,600; 2301,200;45196,100;31,76928
1135,29;16076,400; 2423,100;45857,400;31,43437
1139,70;15995,000; 2288,100;46461,700;31,02962
1144,11;15969,500; 2306,000;47061,800;30,52900
1148,51;15909,100; 2313,600;47677,600;29,96980
1152,90;15760,900; 2332,800;47946,200;29,43894
1157,29;15585,700; 2292,900;48421,700;28,81670
1161,68;15316,500; 2313,100;48619,300;28,08134
1166,06;14996,900; 2309,600;48732,900;27,32960
1170,44;14764,700; 2366,100;48547,000;26,84790
1174,81;14289,500; 2318,600;47745,300;26,35212
1179,18;13936,600; 2329,700;47463,900;25,71642
1183,54;13475,000; 2345,800;47060,900;24,88913
1187,90;13099,000; 2377,500;46950,700;24,05369
1192,25;12554,000; 2344,700;46149,700;23,30624
1196,60;12026,100; 2296,300;45763,400;22,38429
1200,94;11558,800; 2354,600;45323,500;21,42061
1205,28;11019,000; 2332,300;44562,200;20,57002
1209,62;10698,300; 2337,500;44056,300;20,04084
1213,95;10621,800; 2380,000;43765,500;19,91470
1218,27;10594,200; 2311,400;43022,100;20,34551
1222,59;10818,100; 2400,700;42056,700;21,22604
1226,91;11076,400; 2335,900;41649,600;22,23271
1231,22;11176,100; 2314,200;40767,800;23,04570
1235,52;11158,000; 2271,300;39901,100;23,61612
1239,82;11203,700; 2322,400;39388,100;23,96097
1244,12;11057,100; 2318,100;38438,000;24,19442
1248,41;11018,700; 2354,100;37852,300;24,40856
1252,70;10758,200; 2253,500;37010,900;24,46875
1256,98;10734,200; 2299,300;36667,700;24,54260
1261,26;10665,000; 2367,800;36177,100;24,54118
1265,53;10340,400; 2238,400;35319,900;24,49103
1269,80;10285,800; 2285,700;34968,200;24,47824
1274,06;10151,900; 2342,500;34372,200;24,38175
1278,32; 9955,900; 2321,300;33766,300;24,27922
1282,57; 9835,500; 2318,100;33423,400;24,16759
1286,82; 9649,400; 2307,600;32829,200;24,05444
1291,06; 9512,500; 2356,700;32275,900;23,91708
1295,30; 9374,600; 2338,100;31892,600;23,80856
1299,53; 9279,600; 2338,200;31647,500;23,68327
1303,76; 9096,400; 2323,600;31079,700;23,55257
1307,99; 8988,800; 2367,800;30595,000;23,45610
1312,20; 8823,400; 2359,900;30024,100;23,36413
1316,42; 8503,200; 2280,800;29032,600;23,25974
1320,63; 8357,800; 2300,900;28458,500;23,15541
1324,83; 8137,300; 2245,000;27777,100;23,07801
1329,03; 8021,900; 2317,800;27170,400;22,95172
1333,23; 7834,700; 2274,500;26672,500;22,78957
1337,42; 7753,400; 2337,300;26255,200;22,64455
1341,60; 7517,100; 2270,000;25620,600;22,47094
1345,78; 7395,900; 2322,700;25115,000;22,25839
1349,96; 7138,900; 2241,600;24490,500;22,01143
1354,13; 6947,700; 2280,700;23745,200;21,74288
1358,29; 6714,600; 2244,300;23082,400;21,45253
1362,46; 6541,600; 2319,600;22366,700;21,06040
1366,61; 6333,900; 2323,300;21817,100;20,57372
1370,76; 6060,300; 2261,900;21157,200;20,10235
1374,91; 5934,300; 2372,400;20568,000;19,57561
1379,05; 5619,300; 2274,100;19879,800;19,00066
1383,18; 5606,000; 2400,400;19767,200;18,45821
1387,32; 5345,100; 2240,200;19676,200;17,80741
1391,44; 5291,400; 2273,200;19905,300;17,11764
1395,56; 5443,300; 2416,900;20153,000;17,06350
1399,68; 5340,200; 2211,300;20249,800;17,34568
1403,79; 5417,200; 2272,300;20517,600;17,23677
1407,90; 5330,800; 2245,600;20456,300;16,94169
1412,00; 5333,800; 2271,700;20615,900;16,69247
1416,10; 5324,100; 2318,300;20574,800;16,46427
1420,19; 5268,500; 2266,200;20394,400;16,56149
1424,27; 5282,100; 2289,200;20322,000;16,59698
1428,36; 5286,500; 2300,300;20186,500;16,69555
1432,43; 5300,400; 2322,800;20034,000;16,81196
1436,50; 5212,800; 2262,400;19772,900;16,84932
1440,57; 5275,500; 2312,900;19797,100;16,94444
1444,63; 5236,000; 2279,300;19549,200;17,12054
1448,69; 5190,900; 2235,800;19361,400;17,25545
1452,74; 5234,500; 2272,400;19303,800;17,39199
1456,79; 5176,600; 2232,800;19131,100;17,42069
1460,83; 5188,700; 2263,600;18961,800;17,51746
1464,87; 5246,100; 2350,200;18781,300;17,62450
1468,90; 5234,800; 2310,200;18791,500;17,74496
1472,93; 5193,700; 2306,900;18491,800;17,83638
1476,95; 5182,000; 2315,800;18328,800;17,89921
1480,96; 5128,700; 2282,900;18145,100;17,94076
1484,98; 5121,700; 2291,100;18038,800;17,97469
1488,98; 5081,100; 2297,500;17808,200;17,94632
1492,98; 5052,400; 2311,900;17607,700;17,91668
1496,98; 4987,300; 2283,500;17361,700;17,93185
1500,97; 4983,200; 2313,000;17233,100;17,89666
1504,96; 4868,300; 2226,000;17033,400;17,84446
1508,94; 4925,300; 2304,800;17050,500;17,77128
1512,92; 4831,300; 2244,700;16883,900;17,66900
1516,89; 4815,600; 2245,000;16798,700;17,66286
1520,85; 4788,900; 2249,200;16740,000;17,52629
1524,81; 4842,500; 2344,200;16642,100;17,47320
1528,77; 4716,600; 2238,800;16473,000;17,40737
1532,72; 4698,400; 2252,300;16334,200;17,37053
1536,67; 4739,900; 2346,800;16198,700;17,27633
1540,61; 4615,800; 2261,900;15919,100;17,23560
1544,54; 4642,200; 2298,100;15815,100;17,34187
1548,47; 4555,000; 2230,000;15593,800;17,39775
1552,40; 4573,400; 2281,600;15410,700;17,45588
1556,32; 4547,600; 2276,600;15285,000;17,45795
1560,23; 4490,600; 2270,100;14999,600;17,44373
1564,15; 4494,900; 2284,800;14941,900;17,46135
1568,05; 4438,500; 2254,700;14763,000;17,45881
1571,95; 4438,800; 2299,800;14583,200;17,41375
1575,84; 4371,900; 2264,700;14396,200;17,36966
1579,73; 4347,300; 2278,600;14216,200;17,32928
1583,62; 4321,400; 2291,000;14037,500;17,28515
1587,50; 4238,100; 2227,300;13824,900;17,33807
1591,37; 4311,300; 2341,500;13765,300;17,24295
1595,24; 4232,000; 2290,900;13552,200;17,23691
1599,11; 4134,700; 2218,500;13299,400;17,29282
1602,96; 4111,100; 2233,800;13148,300;17,20005
1606,82; 4043,400; 2199,200;12931,900;17,18300
1610,67; 4060,600; 2259,900;12768,200;17,13598
1614,51; 4032,200; 2253,600;12662,100;17,08796
1618,35; 3948,300; 2200,500;12443,200;17,06386
1622,18; 3960,600; 2259,000;12320,000;16,91283
1626,01; 3941,000; 2261,500;12204,900;16,89060
1629,83; 3908,200; 2264,200;12060,300;16,78219
1633,65; 3892,500; 2285,600;11926,300;16,66788
1637,46; 3810,600; 2232,700;11710,000;16,64926
1641,27; 3791,600; 2240,500;11611,900;16,55142
1645,07; 3745,400; 2223,100;11460,600;16,47957
1648,86; 3727,500; 2252,200;11293,600;16,31716
1652,66; 3699,100; 2239,700;11231,400;16,23052
1656,44; 3658,400; 2248,900;11068,200;15,98199
1660,22; 3649,400; 2279,900;10946,100;15,80277
1664,00; 3634,400; 2293,300;10899,400;15,58313
1667,77; 3551,800; 2255,400;10706,100;15,34074
1671,53; 3507,800; 2267,200;10535,100;15,00502
1675,29; 3425,000; 2218,100;10422,700;14,71004
1679,05; 3423,200; 2268,300;10347,700;14,29438
1682,80; 3345,800; 2250,400;10217,700;13,74870
1686,54; 3327,400; 2284,500;10131,800;13,28992
1690,28; 3247,800; 2278,500;10016,500;12,52649
1694,01; 3128,500; 2220,600; 9797,600;11,98231
1697,74; 3056,300; 2222,200; 9685,200;11,17647
1701,46; 3030,900; 2264,100; 9639,900;10,39616
1705,18; 2922,000; 2239,900; 9483,800; 9,41620
1708,89; 2789,800; 2178,500; 9321,400; 8,55815
1712,60; 2821,500; 2263,700; 9310,100; 7,91610
1716,30; 2809,500; 2296,000; 9229,900; 7,40564
1720,00; 2753,800; 2272,600; 9164,500; 6,98211
1723,69; 2724,000; 2274,100; 9040,800; 6,64874
1727,38; 2620,900; 2189,500; 8867,100; 6,46040
1731,06; 2686,100; 2257,500; 8834,400; 6,51675
1734,73; 2690,300; 2236,800; 8714,100; 7,00137
1738,40; 2717,400; 2214,400; 8628,400; 7,84222
1742,07; 2820,500; 2286,100; 8625,700; 8,42955
1745,73; 2810,100; 2245,800; 8533,600; 8,97452
1749,38; 2847,000; 2278,500; 8445,700; 9,21812

