abswhite
Integration time [ms]:  15,000
Averaging Nr. [scans]: 10
Smoothing Nr. [pixels]: 0
Data measured with spectrometer [name]: 1204091U1
Wave   ;Sample   ;Dark     ;Reference;Reflectance
[nm]   ;[counts] ;[counts] ;[counts] ;[%]

1014,48;14162,100; 2348,500;19637,500;68,33015
1019,01;14880,600; 2352,700;20829,700;67,80267
1023,54;15584,800; 2377,000;21962,200;67,43766
1028,07;16221,200; 2352,700;23028,700;67,07535
1032,59;16902,200; 2345,300;24165,800;66,71204
1037,10;17796,400; 2317,300;25614,800;66,44103
1041,62;18497,300; 2350,000;26799,400;66,04375
1046,12;19269,400; 2427,500;28080,800;65,65198
1050,62;19698,900; 2344,700;28925,600;65,28823
1055,12;20172,900; 2300,600;29808,600;64,97128
1059,62;20701,200; 2304,000;30750,500;64,67298
1064,10;21396,200; 2352,400;31934,300;64,37653
1068,59;21934,900; 2395,400;32879,900;64,09651
1073,07;22544,200; 2329,700;33988,100;63,85193
1077,54;23017,800; 2333,200;34909,400;63,49605
1082,01;23639,200; 2383,100;36084,400;63,07205
1086,48;24067,600; 2367,300;37013,200;62,63454
1090,94;24310,500; 2303,100;37697,100;62,17834
1095,39;24970,300; 2435,000;38991,300;61,64546
1099,85;25451,200; 2333,800;40179,000;61,08410
1104,29;25781,100; 2343,900;41108,400;60,46047
1108,73;26055,400; 2303,100;42037,300;59,77797
1113,17;26207,400; 2407,700;42761,500;58,97759
1117,61;26219,400; 2355,500;43454,900;58,06386
1122,03;26193,500; 2409,900;44116,600;57,02585
1126,46;25996,100; 2310,600;44683,800;55,89736
1130,88;25735,200; 2301,200;45196,100;54,63120
1135,29;25593,400; 2423,100;45857,400;53,34563
1139,70;25399,900; 2288,100;46461,700;52,32039
1144,11;25504,400; 2306,000;47061,800;51,83328
1148,51;25827,700; 2313,600;47677,600;51,83427
1152,90;26112,200; 2332,800;47946,200;52,13249
1157,29;26414,600; 2292,900;48421,700;52,29206
1161,68;26446,100; 2313,100;48619,300;52,11613
1166,06;26288,000; 2309,600;48732,900;51,65165
1170,44;25954,200; 2366,100;48547,000;51,07761
1174,81;25265,800; 2318,600;47745,300;50,51479
1179,18;24901,300; 2329,700;47463,900;50,00997
1183,54;24438,400; 2345,800;47060,900;49,40747
1187,90;24105,300; 2377,500;46950,700;48,74633
1192,25;23456,300; 2344,700;46149,700;48,19450
1196,60;23084,600; 2296,300;45763,400;47,82537
1200,94;22803,000; 2354,600;45323,500;47,58884
1205,28;22387,900; 2332,300;44562,200;47,49147
1209,62;22200,800; 2337,500;44056,300;47,61235
1213,95;22148,900; 2380,000;43765,500;47,76770
1218,27;21870,300; 2311,400;43022,100;48,04363
1222,59;21557,900; 2400,700;42056,700;48,30845
1226,91;21433,400; 2335,900;41649,600;48,57721
1231,22;21060,900; 2314,200;40767,800;48,75148
1235,52;20661,200; 2271,300;39901,100;48,87058
1239,82;20427,800; 2322,400;39388,100;48,84678
1244,12;19944,900; 2318,100;38438,000;48,80080
1248,41;19643,500; 2354,100;37852,300;48,70500
1252,70;19137,000; 2253,500;37010,900;48,57527
1256,98;18948,200; 2299,300;36667,700;48,44246
1261,26;18692,800; 2367,800;36177,100;48,28553
1265,53;18147,200; 2238,400;35319,900;48,08972
1269,80;17952,100; 2285,700;34968,200;47,93513
1274,06;17627,900; 2342,500;34372,200;47,72258
1278,32;17243,000; 2321,300;33766,300;47,45333
1282,57;16987,500; 2318,100;33423,400;47,16045
1286,82;16623,200; 2307,600;32829,200;46,90318
1291,06;16297,000; 2356,700;32275,900;46,59316
1295,30;16019,700; 2338,100;31892,600;46,29278
1299,53;15814,600; 2338,200;31647,500;45,97994
1303,76;15457,200; 2323,600;31079,700;45,67240
1307,99;15193,900; 2367,800;30595,000;45,43880
1312,20;14839,800; 2359,900;30024,100;45,11209
1316,42;14265,300; 2280,800;29032,600;44,79885
1320,63;13941,100; 2300,900;28458,500;44,50026
1324,83;13532,200; 2245,000;27777,100;44,20788
1329,03;13217,100; 2317,800;27170,400;43,85577
1333,23;12889,400; 2274,500;26672,500;43,50725
1337,42;12665,600; 2337,300;26255,200;43,18230
1341,60;12268,300; 2270,000;25620,600;42,81817
1345,78;11987,000; 2322,700;25115,000;42,40160
1349,96;11580,100; 2241,600;24490,500;41,97286
1354,13;11187,900; 2280,700;23745,200;41,49736
1358,29;10808,600; 2244,300;23082,400;41,09924
1362,46;10447,500; 2319,600;22366,700;40,54402
1366,61;10107,300; 2323,300;21817,100;39,93064
1370,76; 9708,200; 2261,900;21157,200;39,40821
1374,91; 9416,000; 2372,400;20568,000;38,71046
1379,05; 8978,500; 2274,100;19879,800;38,08085
1383,18; 8922,800; 2400,400;19767,200;37,55672
1387,32; 8705,400; 2240,200;19676,200;37,07961
1391,44; 8722,600; 2273,200;19905,300;36,57761
1395,56; 8836,800; 2416,900;20153,000;36,19680
1399,68; 8684,400; 2211,300;20249,800;35,88491
1403,79; 8737,800; 2272,300;20517,600;35,43652
1407,90; 8640,500; 2245,600;20456,300;35,11617
1412,00; 8676,000; 2271,700;20615,900;34,91185
1416,10; 8682,200; 2318,300;20574,800;34,85827
1420,19; 8580,200; 2266,200;20394,400;34,82971
1424,27; 8549,300; 2289,200;20322,000;34,71507
1428,36; 8499,000; 2300,300;20186,500;34,65633
1432,43; 8429,800; 2322,800;20034,000;34,48101
1436,50; 8265,200; 2262,400;19772,900;34,28115
1440,57; 8254,900; 2312,900;19797,100;33,98497
1444,63; 8090,800; 2279,300;19549,200;33,65103
1448,69; 7937,200; 2235,800;19361,400;33,29168
1452,74; 7870,400; 2272,400;19303,800;32,86870
1456,79; 7694,200; 2232,800;19131,100;32,31923
1460,83; 7582,400; 2263,600;18961,800;31,85254
1464,87; 7528,900; 2350,200;18781,300;31,51767
1468,90; 7492,200; 2310,200;18791,500;31,44169
1472,93; 7410,800; 2306,900;18491,800;31,53495
1476,95; 7392,400; 2315,800;18328,800;31,70299
1480,96; 7341,900; 2282,900;18145,100;31,89343
1484,98; 7337,800; 2291,100;18038,800;32,04722
1488,98; 7287,600; 2297,500;17808,200;32,17198
1492,98; 7245,000; 2311,900;17607,700;32,25134
1496,98; 7160,700; 2283,500;17361,700;32,34604
1500,97; 7139,000; 2313,000;17233,100;32,34563
1504,96; 7005,200; 2226,000;17033,400;32,27575
1508,94; 7065,100; 2304,800;17050,500;32,28263
1512,92; 6963,100; 2244,700;16883,900;32,23127
1516,89; 6927,600; 2245,000;16798,700;32,17464
1520,85; 6887,800; 2249,200;16740,000;32,01066
1524,81; 6913,900; 2344,200;16642,100;31,96064
1528,77; 6769,700; 2238,800;16473,000;31,83108
1532,72; 6732,400; 2252,300;16334,200;31,81460
1536,67; 6734,600; 2346,800;16198,700;31,67652
1540,61; 6573,900; 2261,900;15919,100;31,57309
1544,54; 6559,800; 2298,100;15815,100;31,52845
1548,47; 6430,000; 2230,000;15593,800;31,42819
1552,40; 6392,100; 2281,600;15410,700;31,30832
1556,32; 6333,800; 2276,600;15285,000;31,18908
1560,23; 6213,400; 2270,100;14999,600;30,97765
1564,15; 6182,300; 2284,800;14941,900;30,79299
1568,05; 6094,900; 2254,700;14763,000;30,70121
1571,95; 6045,800; 2299,800;14583,200;30,49644
1575,84; 5946,400; 2264,700;14396,200;30,34827
1579,73; 5886,700; 2278,600;14216,200;30,22467
1583,62; 5814,900; 2291,000;14037,500;29,99957
1587,50; 5687,000; 2227,300;13824,900;29,83117
1591,37; 5728,400; 2341,500;13765,300;29,64775
1595,24; 5599,600; 2290,900;13552,200;29,38115
1599,11; 5448,700; 2218,500;13299,400;29,15106
1602,96; 5377,000; 2233,800;13148,300;28,79839
1606,82; 5240,500; 2199,200;12931,900;28,33677
1610,67; 5202,400; 2259,900;12768,200;28,00167
1614,51; 5114,100; 2253,600;12662,100;27,48235
1618,35; 4960,400; 2200,500;12443,200;26,94504
1622,18; 4905,100; 2259,000;12320,000;26,30057
1626,01; 4799,400; 2261,500;12204,900;25,52346
1629,83; 4690,200; 2264,200;12060,300;24,76496
1633,65; 4605,200; 2285,600;11926,300;24,06049
1637,46; 4458,400; 2232,700;11710,000;23,48454
1641,27; 4394,200; 2240,500;11611,900;22,98162
1645,07; 4310,600; 2223,100;11460,600;22,59811
1648,86; 4239,600; 2252,200;11293,600;21,98111
1652,66; 4152,900; 2239,700;11231,400;21,27740
1656,44; 4035,600; 2248,900;11068,200;20,25898
1660,22; 3939,700; 2279,900;10946,100;19,15257
1664,00; 3856,000; 2293,300;10899,400;18,15805
1667,77; 3718,500; 2255,400;10706,100;17,31336
1671,53; 3651,600; 2267,200;10535,100;16,74428
1675,29; 3571,500; 2218,100;10422,700;16,49562
1679,05; 3606,500; 2268,300;10347,700;16,56311
1682,80; 3576,100; 2250,400;10217,700;16,63926
1686,54; 3617,600; 2284,500;10131,800;16,98801
1690,28; 3597,300; 2278,500;10016,500;17,04316
1694,01; 3513,100; 2220,600; 9797,600;17,05820
1697,74; 3506,500; 2222,200; 9685,200;17,20890
1701,46; 3539,700; 2264,100; 9639,900;17,29440
1705,18; 3500,700; 2239,900; 9483,800;17,40499
1708,89; 3421,500; 2178,500; 9321,400;17,40190
1712,60; 3490,000; 2263,700; 9310,100;17,40321
1716,30; 3501,500; 2296,000; 9229,900;17,38560
1720,00; 3470,800; 2272,600; 9164,500;17,38563
1723,69; 3457,200; 2274,100; 9040,800;17,48415
1727,38; 3368,400; 2189,500; 8867,100;17,65455
1731,06; 3432,200; 2257,500; 8834,400;17,86100
1734,73; 3406,100; 2236,800; 8714,100;18,05227
1738,40; 3378,000; 2214,400; 8628,400;18,14157
1742,07; 3429,100; 2286,100; 8625,700;18,02953
1745,73; 3367,300; 2245,800; 8533,600;17,83613
1749,38; 3375,900; 2278,500; 8445,700;17,79414

