grayABS
Integration time [ms]:  15,000
Averaging Nr. [scans]: 10
Smoothing Nr. [pixels]: 0
Data measured with spectrometer [name]: 1204091U1
Wave   ;Sample   ;Dark     ;Reference;Reflectance
[nm]   ;[counts] ;[counts] ;[counts] ;[%]

1014,48;11243,600; 2348,500;19637,500;51,44948
1019,01;11806,500; 2352,700;20829,700;51,16523
1023,54;12352,100; 2377,000;21962,200;50,93183
1028,07;12828,200; 2352,700;23028,700;50,66502
1032,59;13356,800; 2345,300;24165,800;50,46401
1037,10;14026,700; 2317,300;25614,800;50,26033
1041,62;14577,200; 2350,000;26799,400;50,01023
1046,12;15181,900; 2427,500;28080,800;49,71836
1050,62;15503,400; 2344,700;28925,600;49,50434
1055,12;15854,800; 2300,600;29808,600;49,27367
1059,62;16260,700; 2304,000;30750,500;49,06298
1064,10;16818,100; 2352,400;31934,300;48,90051
1068,59;17236,800; 2395,400;32879,900;48,68507
1073,07;17701,700; 2329,700;33988,100;48,55583
1077,54;18079,900; 2333,200;34909,400;48,33805
1082,01;18580,800; 2383,100;36084,400;48,06254
1086,48;18928,300; 2367,300;37013,200;47,80075
1090,94;19118,000; 2303,100;37697,100;47,50777
1095,39;19684,600; 2435,000;38991,300;47,18639
1099,85;20078,800; 2333,800;40179,000;46,88838
1104,29;20387,600; 2343,900;41108,400;46,54697
1108,73;20652,200; 2303,100;42037,300;46,17961
1113,17;20894,100; 2407,700;42761,500;45,81080
1117,61;21014,000; 2355,500;43454,900;45,39847
1122,03;21135,100; 2409,900;44116,600;44,89734
1126,46;21117,800; 2310,600;44683,800;44,38466
1130,88;21079,900; 2301,200;45196,100;43,77840
1135,29;21146,400; 2423,100;45857,400;43,10718
1139,70;21102,000; 2288,100;46461,700;42,59082
1144,11;21216,300; 2306,000;47061,800;42,25218
1148,51;21455,900; 2313,600;47677,600;42,19712
1152,90;21623,600; 2332,800;47946,200;42,29196
1157,29;21816,000; 2292,900;48421,700;42,32302
1161,68;21840,300; 2313,100;48619,300;42,16973
1166,06;21752,200; 2309,600;48732,900;41,88112
1170,44;21548,200; 2366,100;48547,000;41,53687
1174,81;21030,800; 2318,600;47745,300;41,19207
1179,18;20793,400; 2329,700;47463,900;40,90845
1183,54;20496,800; 2345,800;47060,900;40,59255
1187,90;20292,700; 2377,500;46950,700;40,19276
1192,25;19825,600; 2344,700;46149,700;39,90618
1196,60;19538,900; 2296,300;45763,400;39,66816
1200,94;19326,800; 2354,600;45323,500;39,49880
1205,28;18966,000; 2332,300;44562,200;39,38844
1209,62;18779,100; 2337,500;44056,300;39,41053
1213,95;18689,400; 2380,000;43765,500;39,40849
1218,27;18373,900; 2311,400;43022,100;39,45523
1222,59;18064,700; 2400,700;42056,700;39,49970
1226,91;17877,700; 2335,900;41649,600;39,53278
1231,22;17508,700; 2314,200;40767,800;39,51386
1235,52;17124,600; 2271,300;39901,100;39,47217
1239,82;16908,200; 2322,400;39388,100;39,35121
1244,12;16499,300; 2318,100;38438,000;39,26146
1248,41;16250,200; 2354,100;37852,300;39,14593
1252,70;15805,300; 2253,500;37010,900;38,98968
1256,98;15652,200; 2299,300;36667,700;38,85226
1261,26;15455,200; 2367,800;36177,100;38,70947
1265,53;14981,000; 2238,400;35319,900;38,51881
1269,80;14828,500; 2285,700;34968,200;38,37773
1274,06;14574,200; 2342,500;34372,200;38,18862
1278,32;14272,200; 2321,300;33766,300;38,00572
1282,57;14081,900; 2318,100;33423,400;37,81928
1286,82;13787,200; 2307,600;32829,200;37,61140
1291,06;13549,300; 2356,700;32275,900;37,40942
1295,30;13326,500; 2338,100;31892,600;37,18012
1299,53;13178,600; 2338,200;31647,500;36,98621
1303,76;12897,200; 2323,600;31079,700;36,76994
1307,99;12698,400; 2367,800;30595,000;36,59803
1312,20;12428,300; 2359,900;30024,100;36,39505
1316,42;11958,600; 2280,800;29032,600;36,17626
1320,63;11714,300; 2300,900;28458,500;35,98725
1324,83;11391,400; 2245,000;27777,100;35,82314
1329,03;11161,300; 2317,800;27170,400;35,58380
1333,23;10907,100; 2274,500;26672,500;35,38241
1337,42;10764,600; 2337,300;26255,200;35,23428
1341,60;10435,600; 2270,000;25620,600;34,96955
1345,78;10230,300; 2322,700;25115,000;34,69417
1349,96; 9912,300; 2241,600;24490,500;34,47676
1354,13; 9619,000; 2280,700;23745,200;34,18808
1358,29; 9320,900; 2244,300;23082,400;33,95991
1362,46; 9074,700; 2319,600;22366,700;33,69615
1366,61; 8823,600; 2323,300;21817,100;33,34547
1370,76; 8517,800; 2261,900;21157,200;33,10823
1374,91; 8325,000; 2372,400;20568,000;32,71450
1379,05; 7969,800; 2274,100;19879,800;32,35145
1383,18; 7967,300; 2400,400;19767,200;32,05484
1387,32; 7771,400; 2240,200;19676,200;31,72287
1391,44; 7800,200; 2273,200;19905,300;31,34624
1395,56; 7935,500; 2416,900;20153,000;31,11507
1399,68; 7780,700; 2211,300;20249,800;30,87507
1403,79; 7850,700; 2272,300;20517,600;30,57445
1407,90; 7774,000; 2245,600;20456,300;30,35798
1412,00; 7800,900; 2271,700;20615,900;30,14141
1416,10; 7803,500; 2318,300;20574,800;30,04519
1420,19; 7706,500; 2266,200;20394,400;30,01015
1424,27; 7687,000; 2289,200;20322,000;29,93323
1428,36; 7642,000; 2300,300;20186,500;29,86492
1432,43; 7589,700; 2322,800;20034,000;29,73768
1436,50; 7438,400; 2262,400;19772,900;29,55941
1440,57; 7451,900; 2312,900;19797,100;29,39225
1444,63; 7316,600; 2279,300;19549,200;29,16809
1448,69; 7201,200; 2235,800;19361,400;28,99402
1452,74; 7164,000; 2272,400;19303,800;28,72107
1456,79; 7032,200; 2232,800;19131,100;28,40167
1460,83; 6952,900; 2263,600;18961,800;28,08267
1464,87; 6935,700; 2350,200;18781,300;27,90744
1468,90; 6902,400; 2310,200;18791,500;27,86309
1472,93; 6818,900; 2306,900;18491,800;27,87784
1476,95; 6791,000; 2315,800;18328,800;27,94729
1480,96; 6722,000; 2282,900;18145,100;27,98540
1484,98; 6705,600; 2291,100;18038,800;28,03267
1488,98; 6653,100; 2297,500;17808,200;28,08126
1492,98; 6603,500; 2311,900;17607,700;28,05738
1496,98; 6517,300; 2283,500;17361,700;28,07895
1500,97; 6499,200; 2313,000;17233,100;28,05745
1504,96; 6364,400; 2226,000;17033,400;27,94819
1508,94; 6415,500; 2304,800;17050,500;27,87728
1512,92; 6317,100; 2244,700;16883,900;27,81846
1516,89; 6280,500; 2245,000;16798,700;27,72834
1520,85; 6248,800; 2249,200;16740,000;27,60096
1524,81; 6274,400; 2344,200;16642,100;27,48795
1528,77; 6138,300; 2238,800;16473,000;27,39529
1532,72; 6105,500; 2252,300;16334,200;27,36278
1536,67; 6116,000; 2346,800;16198,700;27,21071
1540,61; 5967,500; 2261,900;15919,100;27,13294
1544,54; 5964,000; 2298,100;15815,100;27,12066
1548,47; 5830,900; 2230,000;15593,800;26,94518
1552,40; 5812,300; 2281,600;15410,700;26,89217
1556,32; 5766,000; 2276,600;15285,000;26,82421
1560,23; 5666,600; 2270,100;14999,600;26,68212
1564,15; 5644,700; 2284,800;14941,900;26,54558
1568,05; 5568,600; 2254,700;14763,000;26,49361
1571,95; 5531,900; 2299,800;14583,200;26,31275
1575,84; 5442,100; 2264,700;14396,200;26,19132
1579,73; 5392,100; 2278,600;14216,200;26,08146
1583,62; 5332,500; 2291,000;14037,500;25,89282
1587,50; 5212,500; 2227,300;13824,900;25,73981
1591,37; 5277,100; 2341,500;13765,300;25,69723
1595,24; 5158,800; 2290,900;13552,200;25,46686
1599,11; 5023,900; 2218,500;13299,400;25,31744
1602,96; 4977,700; 2233,800;13148,300;25,13995
1606,82; 4867,300; 2199,200;12931,900;24,85954
1610,67; 4845,900; 2259,900;12768,200;24,60912
1614,51; 4784,400; 2253,600;12662,100;24,31474
1618,35; 4646,700; 2200,500;12443,200;23,88237
1622,18; 4615,600; 2259,000;12320,000;23,42312
1626,01; 4541,600; 2261,500;12204,900;22,93079
1629,83; 4453,300; 2264,200;12060,300;22,34665
1633,65; 4385,300; 2285,600;11926,300;21,77954
1637,46; 4262,000; 2232,700;11710,000;21,41222
1641,27; 4215,200; 2240,500;11611,900;21,07156
1645,07; 4140,100; 2223,100;11460,600;20,75237
1648,86; 4093,000; 2252,200;11293,600;20,35968
1652,66; 4015,600; 2239,700;11231,400;19,75044
1656,44; 3914,500; 2248,900;11068,200;18,88585
1660,22; 3848,200; 2279,900;10946,100;18,09674
1664,00; 3772,700; 2293,300;10899,400;17,19013
1667,77; 3645,200; 2255,400;10706,100;16,44597
1671,53; 3581,800; 2267,200;10535,100;15,90005
1675,29; 3509,600; 2218,100;10422,700;15,74117
1679,05; 3545,100; 2268,300;10347,700;15,80315
1682,80; 3520,600; 2250,400;10217,700;15,94267
1686,54; 3552,400; 2284,500;10131,800;16,15715
1690,28; 3531,500; 2278,500;10016,500;16,19281
1694,01; 3454,800; 2220,600; 9797,600;16,28877
1697,74; 3446,700; 2222,200; 9685,200;16,40761
1701,46; 3484,600; 2264,100; 9639,900;16,54736
1705,18; 3440,500; 2239,900; 9483,800;16,57394
1708,89; 3365,600; 2178,500; 9321,400;16,61930
1712,60; 3436,800; 2263,700; 9310,100;16,64822
1716,30; 3455,500; 2296,000; 9229,900;16,72219
1720,00; 3428,800; 2272,600; 9164,500;16,77622
1723,69; 3413,700; 2274,100; 9040,800;16,84130
1727,38; 3324,200; 2189,500; 8867,100;16,99263
1731,06; 3390,200; 2257,500; 8834,400;17,22240
1734,73; 3356,600; 2236,800; 8714,100;17,28807
1738,40; 3337,800; 2214,400; 8628,400;17,51481
1742,07; 3391,400; 2286,100; 8625,700;17,43485
1745,73; 3316,100; 2245,800; 8533,600;17,02185
1749,38; 3327,700; 2278,500; 8445,700;17,01258

