kl902
Integration time [ms]:  15,000
Averaging Nr. [scans]: 10
Smoothing Nr. [pixels]: 0
Data measured with spectrometer [name]: 1204091U1
Wave   ;Sample   ;Dark     ;Reference;Reflectance
[nm]   ;[counts] ;[counts] ;[counts] ;[%]

1014,48; 3420,100; 2348,500;19637,500; 6,19816
1019,01; 3486,600; 2352,700;20829,700; 6,13682
1023,54; 3565,000; 2377,000;21962,200; 6,06580
1028,07; 3593,700; 2352,700;23028,700; 6,00213
1032,59; 3644,900; 2345,300;24165,800; 5,95587
1037,10; 3696,400; 2317,300;25614,800; 5,91952
1041,62; 3778,200; 2350,000;26799,400; 5,84145
1046,12; 3925,100; 2427,500;28080,800; 5,83785
1050,62; 3893,800; 2344,700;28925,600; 5,82787
1055,12; 3889,000; 2300,600;29808,600; 5,77432
1059,62; 3939,100; 2304,000;30750,500; 5,74798
1064,10; 4057,000; 2352,400;31934,300; 5,76231
1068,59; 4141,800; 2395,400;32879,900; 5,72881
1073,07; 4137,100; 2329,700;33988,100; 5,70907
1077,54; 4185,300; 2333,200;34909,400; 5,68544
1082,01; 4281,500; 2383,100;36084,400; 5,63302
1086,48; 4316,200; 2367,300;37013,200; 5,62520
1090,94; 4288,200; 2303,100;37697,100; 5,60858
1095,39; 4468,300; 2435,000;38991,300; 5,56211
1099,85; 4428,800; 2333,800;40179,000; 5,53571
1104,29; 4487,700; 2343,900;41108,400; 5,53032
1108,73; 4496,500; 2303,100;42037,300; 5,52018
1113,17; 4631,600; 2407,700;42761,500; 5,51101
1117,61; 4624,200; 2355,500;43454,900; 5,52003
1122,03; 4708,000; 2409,900;44116,600; 5,51015
1126,46; 4645,800; 2310,600;44683,800; 5,51103
1130,88; 4669,300; 2301,200;45196,100; 5,52070
1135,29; 4813,000; 2423,100;45857,400; 5,50233
1139,70; 4712,500; 2288,100;46461,700; 5,48835
1144,11; 4737,600; 2306,000;47061,800; 5,43304
1148,51; 4746,000; 2313,600;47677,600; 5,36196
1152,90; 4749,600; 2332,800;47946,200; 5,29844
1157,29; 4715,200; 2292,900;48421,700; 5,25117
1161,68; 4690,200; 2313,100;48619,300; 5,13344
1166,06; 4649,200; 2309,600;48732,900; 5,03971
1170,44; 4667,200; 2366,100;48547,000; 4,98280
1174,81; 4554,500; 2318,600;47745,300; 4,92200
1179,18; 4514,300; 2329,700;47463,900; 4,84023
1183,54; 4450,900; 2345,800;47060,900; 4,70781
1187,90; 4418,700; 2377,500;46950,700; 4,57943
1192,25; 4293,000; 2344,700;46149,700; 4,44767
1196,60; 4157,400; 2296,300;45763,400; 4,28163
1200,94; 4112,300; 2354,600;45323,500; 4,09063
1205,28; 3989,200; 2332,300;44562,200; 3,92352
1209,62; 3946,200; 2337,500;44056,300; 3,85606
1213,95; 3966,700; 2380,000;43765,500; 3,83395
1218,27; 3929,500; 2311,400;43022,100; 3,97463
1222,59; 4085,400; 2400,700;42056,700; 4,24829
1226,91; 4124,900; 2335,900;41649,600; 4,55058
1231,22; 4151,800; 2314,200;40767,800; 4,77875
1235,52; 4141,500; 2271,300;39901,100; 4,97000
1239,82; 4201,500; 2322,400;39388,100; 5,06965
1244,12; 4191,200; 2318,100;38438,000; 5,18578
1248,41; 4228,100; 2354,100;37852,300; 5,27914
1252,70; 4108,600; 2253,500;37010,900; 5,33728
1256,98; 4150,400; 2299,300;36667,700; 5,38605
1261,26; 4197,600; 2367,800;36177,100; 5,41212
1265,53; 4035,000; 2238,400;35319,900; 5,43083
1269,80; 4077,500; 2285,700;34968,200; 5,48244
1274,06; 4103,700; 2342,500;34372,200; 5,49865
1278,32; 4051,300; 2321,300;33766,300; 5,50167
1282,57; 4039,400; 2318,100;33423,400; 5,53378
1286,82; 3999,900; 2307,600;32829,200; 5,54460
1291,06; 4023,100; 2356,700;32275,900; 5,56967
1295,30; 3992,600; 2338,100;31892,600; 5,59813
1299,53; 3977,400; 2338,200;31647,500; 5,59276
1303,76; 3942,600; 2323,600;31079,700; 5,63011
1307,99; 3967,400; 2367,800;30595,000; 5,66687
1312,20; 3936,100; 2359,900;30024,100; 5,69762
1316,42; 3814,200; 2280,800;29032,600; 5,73195
1320,63; 3804,800; 2300,900;28458,500; 5,74938
1324,83; 3733,300; 2245,000;27777,100; 5,82913
1329,03; 3764,700; 2317,800;27170,400; 5,82193
1333,23; 3702,200; 2274,500;26672,500; 5,85171
1337,42; 3742,600; 2337,300;26255,200; 5,87552
1341,60; 3650,200; 2270,000;25620,600; 5,91077
1345,78; 3671,500; 2322,700;25115,000; 5,91779
1349,96; 3557,400; 2241,600;24490,500; 5,91400
1354,13; 3536,500; 2280,700;23745,200; 5,85059
1358,29; 3468,000; 2244,300;23082,400; 5,87242
1362,46; 3488,100; 2319,600;22366,700; 5,82877
1366,61; 3443,700; 2323,300;21817,100; 5,74747
1370,76; 3325,900; 2261,900;21157,200; 5,63103
1374,91; 3386,300; 2372,400;20568,000; 5,57223
1379,05; 3231,400; 2274,100;19879,800; 5,43744
1383,18; 3329,800; 2400,400;19767,200; 5,35159
1387,32; 3142,800; 2240,200;19676,200; 5,17665
1391,44; 3149,100; 2273,200;19905,300; 4,96764
1395,56; 3310,900; 2416,900;20153,000; 5,04057
1399,68; 3134,800; 2211,300;20249,800; 5,11961
1403,79; 3206,500; 2272,300;20517,600; 5,12022
1407,90; 3169,000; 2245,600;20456,300; 5,07065
1412,00; 3192,400; 2271,700;20615,900; 5,01903
1416,10; 3225,000; 2318,300;20574,800; 4,96645
1420,19; 3187,900; 2266,200;20394,400; 5,08434
1424,27; 3211,000; 2289,200;20322,000; 5,11180
1428,36; 3234,300; 2300,300;20186,500; 5,22190
1432,43; 3264,500; 2322,800;20034,000; 5,31697
1436,50; 3195,100; 2262,400;19772,900; 5,32652
1440,57; 3258,200; 2312,900;19797,100; 5,40660
1444,63; 3228,900; 2279,300;19549,200; 5,49858
1448,69; 3197,100; 2235,800;19361,400; 5,61323
1452,74; 3234,500; 2272,400;19303,800; 5,64898
1456,79; 3194,400; 2232,800;19131,100; 5,69051
1460,83; 3225,900; 2263,600;18961,800; 5,76290
1464,87; 3311,000; 2350,200;18781,300; 5,84745
1468,90; 3276,700; 2310,200;18791,500; 5,86422
1472,93; 3273,700; 2306,900;18491,800; 5,97347
1476,95; 3270,900; 2315,800;18328,800; 5,96453
1480,96; 3251,100; 2282,900;18145,100; 6,10382
1484,98; 3259,700; 2291,100;18038,800; 6,15074
1488,98; 3269,400; 2297,500;17808,200; 6,26600
1492,98; 3270,000; 2311,900;17607,700; 6,26381
1496,98; 3240,700; 2283,500;17361,700; 6,34824
1500,97; 3272,600; 2313,000;17233,100; 6,43159
1504,96; 3181,100; 2226,000;17033,400; 6,45015
1508,94; 3255,700; 2304,800;17050,500; 6,44866
1512,92; 3187,400; 2244,700;16883,900; 6,43956
1516,89; 3189,300; 2245,000;16798,700; 6,48838
1520,85; 3182,800; 2249,200;16740,000; 6,44271
1524,81; 3269,700; 2344,200;16642,100; 6,47298
1528,77; 3158,700; 2238,800;16473,000; 6,46260
1532,72; 3172,200; 2252,300;16334,200; 6,53250
1536,67; 3243,000; 2346,800;16198,700; 6,46987
1540,61; 3150,700; 2261,900;15919,100; 6,50792
1544,54; 3193,700; 2298,100;15815,100; 6,62573
1548,47; 3120,600; 2230,000;15593,800; 6,66427
1552,40; 3162,900; 2281,600;15410,700; 6,71257
1556,32; 3148,500; 2276,600;15285,000; 6,70259
1560,23; 3131,800; 2270,100;14999,600; 6,76932
1564,15; 3138,900; 2284,800;14941,900; 6,74799
1568,05; 3110,800; 2254,700;14763,000; 6,84426
1571,95; 3144,600; 2299,800;14583,200; 6,87757
1575,84; 3108,300; 2264,700;14396,200; 6,95380
1579,73; 3112,700; 2278,600;14216,200; 6,98717
1583,62; 3110,000; 2291,000;14037,500; 6,97229
1587,50; 3052,000; 2227,300;13824,900; 7,11095
1591,37; 3157,500; 2341,500;13765,300; 7,14298
1595,24; 3103,600; 2290,900;13552,200; 7,21675
1599,11; 3033,200; 2218,500;13299,400; 7,35229
1602,96; 3034,800; 2233,800;13148,300; 7,33886
1606,82; 2993,900; 2199,200;12931,900; 7,40447
1610,67; 3038,300; 2259,900;12768,200; 7,40748
1614,51; 3026,600; 2253,600;12662,100; 7,42662
1618,35; 2954,200; 2200,500;12443,200; 7,35841
1622,18; 3010,500; 2259,000;12320,000; 7,46944
1626,01; 2995,000; 2261,500;12204,900; 7,37675
1629,83; 2984,700; 2264,200;12060,300; 7,35497
1633,65; 2998,600; 2285,600;11926,300; 7,39573
1637,46; 2932,800; 2232,700;11710,000; 7,38713
1641,27; 2928,200; 2240,500;11611,900; 7,33828
1645,07; 2905,800; 2223,100;11460,600; 7,39053
1648,86; 2918,800; 2252,200;11293,600; 7,37275
1652,66; 2901,900; 2239,700;11231,400; 7,36457
1656,44; 2899,800; 2248,900;11068,200; 7,38040
1660,22; 2917,200; 2279,900;10946,100; 7,35386
1664,00; 2926,900; 2293,300;10899,400; 7,36222
1667,77; 2867,000; 2255,400;10706,100; 7,23727
1671,53; 2855,700; 2267,200;10535,100; 7,11789
1675,29; 2801,600; 2218,100;10422,700; 7,11186
1679,05; 2828,600; 2268,300;10347,700; 6,93492
1682,80; 2787,600; 2250,400;10217,700; 6,74256
1686,54; 2805,300; 2284,500;10131,800; 6,63668
1690,28; 2769,700; 2278,500;10016,500; 6,34789
1694,01; 2685,500; 2220,600; 9797,600; 6,13567
1697,74; 2657,600; 2222,200; 9685,200; 5,83411
1701,46; 2661,300; 2264,100; 9639,900; 5,38518
1705,18; 2591,800; 2239,900; 9483,800; 4,85788
1708,89; 2496,000; 2178,500; 9321,400; 4,44497
1712,60; 2541,100; 2263,700; 9310,100; 3,93676
1716,30; 2561,900; 2296,000; 9229,900; 3,83478
1720,00; 2519,600; 2272,600; 9164,500; 3,58392
1723,69; 2508,700; 2274,100; 9040,800; 3,46698
1727,38; 2418,400; 2189,500; 8867,100; 3,42788
1731,06; 2488,200; 2257,500; 8834,400; 3,50773
1734,73; 2474,900; 2236,800; 8714,100; 3,67591
1738,40; 2471,600; 2214,400; 8628,400; 4,00998
1742,07; 2558,000; 2286,100; 8625,700; 4,28891
1745,73; 2533,400; 2245,800; 8533,600; 4,57394
1749,38; 2578,000; 2278,500; 8445,700; 4,85634

