purpleps
Integration time [ms]:  15,000
Averaging Nr. [scans]: 10
Smoothing Nr. [pixels]: 0
Data measured with spectrometer [name]: 1204091U1
Wave   ;Sample   ;Dark     ;Reference;Reflectance
[nm]   ;[counts] ;[counts] ;[counts] ;[%]

1014,48; 2989,700; 2348,500;19637,500; 3,70872
1019,01; 3029,100; 2352,700;20829,700; 3,66077
1023,54; 3084,700; 2377,000;21962,200; 3,61344
1028,07; 3087,100; 2352,700;23028,700; 3,55194
1032,59; 3113,300; 2345,300;24165,800; 3,51963
1037,10; 3128,700; 2317,300;25614,800; 3,48278
1041,62; 3189,100; 2350,000;26799,400; 3,43199
1046,12; 3306,100; 2427,500;28080,800; 3,42490
1050,62; 3248,500; 2344,700;28925,600; 3,40019
1055,12; 3225,900; 2300,600;29808,600; 3,36375
1059,62; 3265,900; 2304,000;30750,500; 3,38144
1064,10; 3356,300; 2352,400;31934,300; 3,39363
1068,59; 3422,000; 2395,400;32879,900; 3,36761
1073,07; 3394,500; 2329,700;33988,100; 3,36340
1077,54; 3423,500; 2333,200;34909,400; 3,34692
1082,01; 3496,300; 2383,100;36084,400; 3,30314
1086,48; 3518,400; 2367,300;37013,200; 3,32247
1090,94; 3470,900; 2303,100;37697,100; 3,29943
1095,39; 3637,900; 2435,000;38991,300; 3,29054
1099,85; 3571,300; 2333,800;40179,000; 3,26990
1104,29; 3612,700; 2343,900;41108,400; 3,27310
1108,73; 3599,300; 2303,100;42037,300; 3,26218
1113,17; 3725,200; 2407,700;42761,500; 3,26487
1117,61; 3698,300; 2355,500;43454,900; 3,26720
1122,03; 3760,900; 2409,900;44116,600; 3,23929
1126,46; 3683,800; 2310,600;44683,800; 3,24073
1130,88; 3685,200; 2301,200;45196,100; 3,22649
1135,29; 3814,600; 2423,100;45857,400; 3,20369
1139,70; 3705,800; 2288,100;46461,700; 3,20938
1144,11; 3736,400; 2306,000;47061,800; 3,19601
1148,51; 3760,400; 2313,600;47677,600; 3,18931
1152,90; 3805,000; 2332,800;47946,200; 3,22756
1157,29; 3803,400; 2292,900;48421,700; 3,27453
1161,68; 3829,200; 2313,100;48619,300; 3,27408
1166,06; 3831,700; 2309,600;48732,900; 3,27874
1170,44; 3893,000; 2366,100;48547,000; 3,30635
1174,81; 3822,800; 2318,600;47745,300; 3,31127
1179,18; 3827,500; 2329,700;47463,900; 3,31855
1183,54; 3830,500; 2345,800;47060,900; 3,32035
1187,90; 3867,800; 2377,500;46950,700; 3,34349
1192,25; 3812,000; 2344,700;46149,700; 3,34962
1196,60; 3755,900; 2296,300;45763,400; 3,35794
1200,94; 3802,000; 2354,600;45323,500; 3,36848
1205,28; 3763,200; 2332,300;44562,200; 3,38836
1209,62; 3760,900; 2337,500;44056,300; 3,41189
1213,95; 3798,000; 2380,000;43765,500; 3,42632
1218,27; 3714,200; 2311,400;43022,100; 3,44578
1222,59; 3770,400; 2400,700;42056,700; 3,45395
1226,91; 3707,900; 2335,900;41649,600; 3,48988
1231,22; 3660,300; 2314,200;40767,800; 3,50058
1235,52; 3598,800; 2271,300;39901,100; 3,52779
1239,82; 3642,800; 2322,400;39388,100; 3,56232
1244,12; 3606,400; 2318,100;38438,000; 3,56673
1248,41; 3633,800; 2354,100;37852,300; 3,60497
1252,70; 3506,600; 2253,500;37010,900; 3,60528
1256,98; 3548,600; 2299,300;36667,700; 3,63503
1261,26; 3597,900; 2367,800;36177,100; 3,63835
1265,53; 3444,400; 2238,400;35319,900; 3,64554
1269,80; 3495,200; 2285,700;34968,200; 3,70076
1274,06; 3530,400; 2342,500;34372,200; 3,70875
1278,32; 3498,900; 2321,300;33766,300; 3,74495
1282,57; 3480,200; 2318,100;33423,400; 3,73602
1286,82; 3459,500; 2307,600;32829,200; 3,77405
1291,06; 3490,800; 2356,700;32275,900; 3,79054
1295,30; 3465,200; 2338,100;31892,600; 3,81363
1299,53; 3466,400; 2338,200;31647,500; 3,84929
1303,76; 3426,800; 2323,600;31079,700; 3,83640
1307,99; 3465,600; 2367,800;30595,000; 3,88916
1312,20; 3438,200; 2359,900;30024,100; 3,89782
1316,42; 3325,500; 2280,800;29032,600; 3,90516
1320,63; 3335,100; 2300,900;28458,500; 3,95373
1324,83; 3253,900; 2245,000;27777,100; 3,95150
1329,03; 3307,800; 2317,800;27170,400; 3,98349
1333,23; 3252,100; 2274,500;26672,500; 4,00689
1337,42; 3301,700; 2337,300;26255,200; 4,03213
1341,60; 3211,800; 2270,000;25620,600; 4,03330
1345,78; 3256,200; 2322,700;25115,000; 4,09568
1349,96; 3159,400; 2241,600;24490,500; 4,12515
1354,13; 3163,700; 2280,700;23745,200; 4,11377
1358,29; 3120,800; 2244,300;23082,400; 4,20624
1362,46; 3166,800; 2319,600;22366,700; 4,22605
1366,61; 3154,300; 2323,300;21817,100; 4,26289
1370,76; 3073,900; 2261,900;21157,200; 4,29736
1374,91; 3159,600; 2372,400;20568,000; 4,32632
1379,05; 3041,300; 2274,100;19879,800; 4,35768
1383,18; 3159,100; 2400,400;19767,200; 4,36868
1387,32; 3003,000; 2240,200;19676,200; 4,37486
1391,44; 3037,900; 2273,200;19905,300; 4,33698
1395,56; 3193,400; 2416,900;20153,000; 4,37808
1399,68; 3000,800; 2211,300;20249,800; 4,37675
1403,79; 3067,800; 2272,300;20517,600; 4,36003
1407,90; 3045,300; 2245,600;20456,300; 4,39137
1412,00; 3070,500; 2271,700;20615,900; 4,35451
1416,10; 3117,300; 2318,300;20574,800; 4,37652
1420,19; 3074,100; 2266,200;20394,400; 4,45659
1424,27; 3088,800; 2289,200;20322,000; 4,43414
1428,36; 3101,200; 2300,300;20186,500; 4,47775
1432,43; 3120,600; 2322,800;20034,000; 4,50449
1436,50; 3058,900; 2262,400;19772,900; 4,54870
1440,57; 3107,300; 2312,900;19797,100; 4,54353
1444,63; 3066,900; 2279,300;19549,200; 4,56054
1448,69; 3022,600; 2235,800;19361,400; 4,59429
1452,74; 3051,600; 2272,400;19303,800; 4,57508
1456,79; 3008,200; 2232,800;19131,100; 4,58863
1460,83; 3031,100; 2263,600;18961,800; 4,59630
1464,87; 3109,200; 2350,200;18781,300; 4,61929
1468,90; 3069,000; 2310,200;18791,500; 4,60401
1472,93; 3062,000; 2306,900;18491,800; 4,66546
1476,95; 3065,000; 2315,800;18328,800; 4,67870
1480,96; 3034,200; 2282,900;18145,100; 4,73642
1484,98; 3042,900; 2291,100;18038,800; 4,77403
1488,98; 3045,200; 2297,500;17808,200; 4,82054
1492,98; 3054,700; 2311,900;17607,700; 4,85624
1496,98; 3019,500; 2283,500;17361,700; 4,88122
1500,97; 3041,500; 2313,000;17233,100; 4,88268
1504,96; 2954,300; 2226,000;17033,400; 4,91849
1508,94; 3032,000; 2304,800;17050,500; 4,93161
1512,92; 2963,500; 2244,700;16883,900; 4,91010
1516,89; 2969,300; 2245,000;16798,700; 4,97674
1520,85; 2969,100; 2249,200;16740,000; 4,96798
1524,81; 3057,100; 2344,200;16642,100; 4,98605
1528,77; 2952,300; 2238,800;16473,000; 5,01258
1532,72; 2965,700; 2252,300;16334,200; 5,06608
1536,67; 3038,100; 2346,800;16198,700; 4,99065
1540,61; 2964,700; 2261,900;15919,100; 5,14600
1544,54; 2997,700; 2298,100;15815,100; 5,17570
1548,47; 2919,700; 2230,000;15593,800; 5,16096
1552,40; 2961,200; 2281,600;15410,700; 5,17629
1556,32; 2951,800; 2276,600;15285,000; 5,19049
1560,23; 2934,900; 2270,100;14999,600; 5,22251
1564,15; 2945,000; 2284,800;14941,900; 5,21604
1568,05; 2921,200; 2254,700;14763,000; 5,32846
1571,95; 2949,700; 2299,800;14583,200; 5,29088
1575,84; 2911,200; 2264,700;14396,200; 5,32910
1579,73; 2911,700; 2278,600;14216,200; 5,30341
1583,62; 2920,000; 2291,000;14037,500; 5,35479
1587,50; 2856,300; 2227,300;13824,900; 5,42354
1591,37; 2963,600; 2341,500;13765,300; 5,44565
1595,24; 2909,500; 2290,900;13552,200; 5,49315
1599,11; 2832,000; 2218,500;13299,400; 5,53655
1602,96; 2844,600; 2233,800;13148,300; 5,59623
1606,82; 2791,500; 2199,200;12931,900; 5,51865
1610,67; 2848,200; 2259,900;12768,200; 5,59843
1614,51; 2832,600; 2253,600;12662,100; 5,56276
1618,35; 2773,600; 2200,500;12443,200; 5,59520
1622,18; 2823,600; 2259,000;12320,000; 5,61177
1626,01; 2811,400; 2261,500;12204,900; 5,53030
1629,83; 2802,800; 2264,200;12060,300; 5,49811
1633,65; 2818,200; 2285,600;11926,300; 5,52450
1637,46; 2750,500; 2232,700;11710,000; 5,46358
1641,27; 2743,700; 2240,500;11611,900; 5,36953
1645,07; 2732,200; 2223,100;11460,600; 5,51123
1648,86; 2748,200; 2252,200;11293,600; 5,48588
1652,66; 2729,800; 2239,700;11231,400; 5,45058
1656,44; 2727,200; 2248,900;11068,200; 5,42333
1660,22; 2748,200; 2279,900;10946,100; 5,40375
1664,00; 2744,900; 2293,300;10899,400; 5,24744
1667,77; 2685,900; 2255,400;10706,100; 5,09425
1671,53; 2682,900; 2267,200;10535,100; 5,02788
1675,29; 2632,300; 2218,100;10422,700; 5,04839
1679,05; 2676,900; 2268,300;10347,700; 5,05731
1682,80; 2659,500; 2250,400;10217,700; 5,13474
1686,54; 2703,600; 2284,500;10131,800; 5,34069
1690,28; 2696,600; 2278,500;10016,500; 5,40320
1694,01; 2643,000; 2220,600; 9797,600; 5,57477
1697,74; 2646,800; 2222,200; 9685,200; 5,68940
1701,46; 2695,100; 2264,100; 9639,900; 5,84343
1705,18; 2665,600; 2239,900; 9483,800; 5,87667
1708,89; 2614,200; 2178,500; 9321,400; 6,09976
1712,60; 2697,000; 2263,700; 9310,100; 6,14924
1716,30; 2725,200; 2296,000; 9229,900; 6,18988
1720,00; 2703,900; 2272,600; 9164,500; 6,25807
1723,69; 2698,900; 2274,100; 9040,800; 6,27780
1727,38; 2618,600; 2189,500; 8867,100; 6,42596
1731,06; 2682,300; 2257,500; 8834,400; 6,45897
1734,73; 2657,900; 2236,800; 8714,100; 6,50117
1738,40; 2633,400; 2214,400; 8628,400; 6,53258
1742,07; 2705,200; 2286,100; 8625,700; 6,61083
1745,73; 2667,900; 2245,800; 8533,600; 6,71300
1749,38; 2692,500; 2278,500; 8445,700; 6,71293

