vanwerven
Integration time [ms]:  15,000
Averaging Nr. [scans]: 10
Smoothing Nr. [pixels]: 0
Data measured with spectrometer [name]: 1204091U1
Wave   ;Sample   ;Dark     ;Reference;Reflectance
[nm]   ;[counts] ;[counts] ;[counts] ;[%]

1014,48;11921,700; 2348,500;19637,500;55,37162
1019,01;12588,900; 2352,700;20829,700;55,39969
1023,54;13237,100; 2377,000;21962,200;55,45054
1028,07;13836,000; 2352,700;23028,700;55,53927
1032,59;14481,400; 2345,300;24165,800;55,61788
1037,10;15299,400; 2317,300;25614,800;55,72315
1041,62;15987,900; 2350,000;26799,400;55,78010
1046,12;16745,200; 2427,500;28080,800;55,81231
1050,62;17202,100; 2344,700;28925,600;55,89502
1055,12;17702,500; 2300,600;29808,600;55,99062
1059,62;18261,000; 2304,000;30750,500;56,09477
1064,10;18984,100; 2352,400;31934,300;56,22256
1068,59;19565,900; 2395,400;32879,900;56,32535
1073,07;20217,500; 2329,700;33988,100;56,50254
1077,54;20765,200; 2333,200;34909,400;56,58119
1082,01;21466,300; 2383,100;36084,400;56,62452
1086,48;21996,300; 2367,300;37013,200;56,65605
1090,94;22362,800; 2303,100;37697,100;56,67543
1095,39;23148,200; 2435,000;38991,300;56,66110
1099,85;23772,000; 2333,800;40179,000;56,64708
1104,29;24305,700; 2343,900;41108,400;56,65441
1108,73;24805,800; 2303,100;42037,300;56,63308
1113,17;25283,900; 2407,700;42761,500;56,68909
1117,61;25692,000; 2355,500;43454,900;56,78063
1122,03;26096,100; 2409,900;44116,600;56,79231
1126,46;26394,700; 2310,600;44683,800;56,83805
1130,88;26675,300; 2301,200;45196,100;56,82284
1135,29;27066,500; 2423,100;45857,400;56,73719
1139,70;27275,700; 2288,100;46461,700;56,56682
1144,11;27500,400; 2306,000;47061,800;56,29304
1148,51;27712,700; 2313,600;47677,600;55,98955
1152,90;27721,600; 2332,800;47946,200;55,66084
1157,29;27750,800; 2292,900;48421,700;55,18873
1161,68;27609,400; 2313,100;48619,300;54,62832
1166,06;27421,400; 2309,600;48732,900;54,09310
1170,44;27175,100; 2366,100;48547,000;53,72134
1174,81;26651,900; 2318,600;47745,300;53,56607
1179,18;26515,400; 2329,700;47463,900;53,58619
1183,54;26301,800; 2345,800;47060,900;53,57474
1187,90;26220,600; 2377,500;46950,700;53,49201
1192,25;25790,500; 2344,700;46149,700;53,52311
1196,60;25652,100; 2296,300;45763,400;53,73213
1200,94;25604,300; 2354,600;45323,500;54,10820
1205,28;25377,000; 2332,300;44562,200;54,56963
1209,62;25321,100; 2337,500;44056,300;55,09171
1213,95;25353,700; 2380,000;43765,500;55,51147
1218,27;25064,100; 2311,400;43022,100;55,88875
1222,59;24682,400; 2400,700;42056,700;56,18746
1226,91;24513,900; 2335,900;41649,600;56,41290
1231,22;24067,600; 2314,200;40767,800;56,57052
1235,52;23591,600; 2271,300;39901,100;56,65802
1239,82;23333,300; 2322,400;39388,100;56,68556
1244,12;22810,400; 2318,100;38438,000;56,73410
1248,41;22524,900; 2354,100;37852,300;56,82204
1252,70;22020,600; 2253,500;37010,900;56,87163
1256,98;21850,900; 2299,300;36667,700;56,88830
1261,26;21614,400; 2367,800;36177,100;56,92694
1265,53;21064,100; 2238,400;35319,900;56,90703
1269,80;20901,500; 2285,700;34968,200;56,95953
1274,06;20591,600; 2342,500;34372,200;56,97556
1278,32;20227,900; 2321,300;33766,300;56,94578
1282,57;20032,900; 2318,100;33423,400;56,95107
1286,82;19671,100; 2307,600;32829,200;56,88922
1291,06;19351,100; 2356,700;32275,900;56,80098
1295,30;19126,300; 2338,100;31892,600;56,80421
1299,53;18972,900; 2338,200;31647,500;56,75571
1303,76;18619,800; 2323,600;31079,700;56,67041
1307,99;18359,400; 2367,800;30595,000;56,65316
1312,20;18020,500; 2359,900;30024,100;56,60963
1316,42;17413,500; 2280,800;29032,600;56,56703
1320,63;17080,800; 2300,900;28458,500;56,50327
1324,83;16675,100; 2245,000;27777,100;56,51748
1329,03;16357,000; 2317,800;27170,400;56,48986
1333,23;16035,800; 2274,500;26672,500;56,40339
1337,42;15807,000; 2337,300;26255,200;56,31640
1341,60;15389,700; 2270,000;25620,600;56,18571
1345,78;15091,900; 2322,700;25115,000;56,02418
1349,96;14666,500; 2241,600;24490,500;55,84501
1354,13;14223,700; 2280,700;23745,200;55,64071
1358,29;13797,100; 2244,300;23082,400;55,44076
1362,46;13363,600; 2319,600;22366,700;55,09026
1366,61;13001,400; 2323,300;21817,100;54,77690
1370,76;12554,000; 2261,900;21157,200;54,46910
1374,91;12189,200; 2372,400;20568,000;53,95150
1379,05;11696,700; 2274,100;19879,800;53,52017
1383,18;11649,000; 2400,400;19767,200;53,25449
1387,32;11478,400; 2240,200;19676,200;52,98348
1391,44;11570,000; 2273,200;19905,300;52,72656
1395,56;11730,300; 2416,900;20153,000;52,51098
1399,68;11634,700; 2211,300;20249,800;52,24049
1403,79;11774,800; 2272,300;20517,600;52,08191
1407,90;11716,300; 2245,600;20456,300;52,00624
1412,00;11801,400; 2271,700;20615,900;51,94939
1416,10;11794,400; 2318,300;20574,800;51,90535
1420,19;11691,100; 2266,200;20394,400;51,99027
1424,27;11676,000; 2289,200;20322,000;52,05403
1428,36;11633,500; 2300,300;20186,500;52,18101
1432,43;11611,300; 2322,800;20034,000;52,44422
1436,50;11493,900; 2262,400;19772,900;52,71980
1440,57;11552,300; 2312,900;19797,100;52,84428
1444,63;11409,200; 2279,300;19549,200;52,86597
1448,69;11301,200; 2235,800;19361,400;52,93479
1452,74;11284,500; 2272,400;19303,800;52,91462
1456,79;11181,100; 2232,800;19131,100;52,95385
1460,83;11108,500; 2263,600;18961,800;52,96918
1464,87;11049,600; 2350,200;18781,300;52,94472
1468,90;11036,300; 2310,200;18791,500;52,94546
1472,93;10883,400; 2306,900;18491,800;52,99075
1476,95;10797,200; 2315,800;18328,800;52,96572
1480,96;10683,500; 2282,900;18145,100;52,95987
1484,98;10630,900; 2291,100;18038,800;52,95884
1488,98;10513,700; 2297,500;17808,200;52,97117
1492,98;10408,200; 2311,900;17607,700;52,93152
1496,98;10259,800; 2283,500;17361,700;52,89955
1500,97;10198,100; 2313,000;17233,100;52,84884
1504,96;10041,200; 2226,000;17033,400;52,77902
1508,94;10079,400; 2304,800;17050,500;52,72452
1512,92; 9944,000; 2244,700;16883,900;52,59372
1516,89; 9882,100; 2245,000;16798,700;52,47532
1520,85; 9840,000; 2249,200;16740,000;52,38358
1524,81; 9816,700; 2344,200;16642,100;52,26292
1528,77; 9673,600; 2238,800;16473,000;52,23195
1532,72; 9606,700; 2252,300;16334,200;52,22591
1536,67; 9568,500; 2346,800;16198,700;52,13509
1540,61; 9365,200; 2261,900;15919,100;52,01139
1544,54; 9323,300; 2298,100;15815,100;51,97307
1548,47; 9163,900; 2230,000;15593,800;51,88569
1552,40; 9085,700; 2281,600;15410,700;51,82457
1556,32; 9001,000; 2276,600;15285,000;51,69275
1560,23; 8840,300; 2270,100;14999,600;51,61397
1564,15; 8806,400; 2284,800;14941,900;51,52523
1568,05; 8691,600; 2254,700;14763,000;51,46103
1571,95; 8605,300; 2299,800;14583,200;51,33351
1575,84; 8478,700; 2264,700;14396,200;51,22203
1579,73; 8379,300; 2278,600;14216,200;51,10491
1583,62; 8280,100; 2291,000;14037,500;50,98625
1587,50; 8138,200; 2227,300;13824,900;50,96658
1591,37; 8148,600; 2341,500;13765,300;50,83335
1595,24; 8017,400; 2290,900;13552,200;50,85115
1599,11; 7848,700; 2218,500;13299,400;50,80995
1602,96; 7765,300; 2233,800;13148,300;50,68029
1606,82; 7621,200; 2199,200;12931,900;50,51851
1610,67; 7560,500; 2259,900;12768,200;50,44203
1614,51; 7493,900; 2253,600;12662,100;50,34635
1618,35; 7338,900; 2200,500;12443,200;50,16646
1622,18; 7287,600; 2259,000;12320,000;49,98112
1626,01; 7221,000; 2261,500;12204,900;49,87731
1629,83; 7123,800; 2264,200;12060,300;49,60750
1633,65; 7045,200; 2285,600;11926,300;49,36986
1637,46; 6894,500; 2232,700;11710,000;49,18912
1641,27; 6824,900; 2240,500;11611,900;48,91905
1645,07; 6725,200; 2223,100;11460,600;48,73721
1648,86; 6645,700; 2252,200;11293,600;48,59314
1652,66; 6577,400; 2239,700;11231,400;48,24116
1656,44; 6470,200; 2248,900;11068,200;47,86434
1660,22; 6392,500; 2279,900;10946,100;47,45563
1664,00; 6324,300; 2293,300;10899,400;46,83887
1667,77; 6144,200; 2255,400;10706,100;46,01749
1671,53; 5996,300; 2267,200;10535,100;45,10335
1675,29; 5831,900; 2218,100;10422,700;44,04602
1679,05; 5730,900; 2268,300;10347,700;42,85714
1682,80; 5546,700; 2250,400;10217,700;41,37286
1686,54; 5408,500; 2284,500;10131,800;39,80987
1690,28; 5207,400; 2278,500;10016,500;37,85087
1694,01; 4930,400; 2220,600; 9797,600;35,76349
1697,74; 4749,000; 2222,200; 9685,200;33,85770
1701,46; 4635,500; 2264,100; 9639,900;32,15109
1705,18; 4453,900; 2239,900; 9483,800;30,56365
1708,89; 4254,100; 2178,500; 9321,400;29,05823
1712,60; 4248,500; 2263,700; 9310,100;28,16757
1716,30; 4255,000; 2296,000; 9229,900;28,25250
1720,00; 4296,900; 2272,600; 9164,500;29,37216
1723,69; 4359,500; 2274,100; 9040,800;30,81857
1727,38; 4337,600; 2189,500; 8867,100;32,16874
1731,06; 4422,800; 2257,500; 8834,400;32,92281
1734,73; 4386,900; 2236,800; 8714,100;33,19439
1738,40; 4342,400; 2214,400; 8628,400;33,17742
1742,07; 4377,000; 2286,100; 8625,700;32,98158
1745,73; 4327,500; 2245,800; 8533,600;33,10697
1749,38; 4349,400; 2278,500; 8445,700;33,57926

