129-2
Integration time [ms]:  15,000
Averaging Nr. [scans]: 10
Smoothing Nr. [pixels]: 0
Data measured with spectrometer [name]: 1204091U1
Wave   ;Sample   ;Dark     ;Reference;Reflectance
[nm]   ;[counts] ;[counts] ;[counts] ;[%]

1014,48;17870,100; 2348,500;19637,500;89,77732
1019,01;18969,500; 2352,700;20829,700;89,93235
1023,54;19999,200; 2377,000;21962,200;89,97713
1028,07;20948,800; 2352,700;23028,700;89,94051
1032,59;21984,100; 2345,300;24165,800;90,00160
1037,10;23305,800; 2317,300;25614,800;90,08907
1041,62;24364,700; 2350,000;26799,400;90,04188
1046,12;25506,400; 2427,500;28080,800;89,96464
1050,62;26263,500; 2344,700;28925,600;89,98491
1055,12;27084,000; 2300,600;29808,600;90,09525
1059,62;27920,500; 2304,000;30750,500;90,05150
1064,10;28982,100; 2352,400;31934,300;90,02025
1068,59;29863,200; 2395,400;32879,900;90,10415
1073,07;30917,200; 2329,700;33988,100;90,29989
1077,54;31748,700; 2333,200;34909,400;90,29752
1082,01;32788,300; 2383,100;36084,400;90,21967
1086,48;33628,700; 2367,300;37013,200;90,23117
1090,94;34215,800; 2303,100;37697,100;90,16415
1095,39;35338,600; 2435,000;38991,300;90,00802
1099,85;36353,200; 2333,800;40179,000;89,89092
1104,29;37123,200; 2343,900;41108,400;89,71946
1108,73;37870,500; 2303,100;42037,300;89,51332
1113,17;38467,100; 2407,700;42761,500;89,35813
1117,61;39004,200; 2355,500;43454,900;89,17089
1122,03;39492,500; 2409,900;44116,600;88,91281
1126,46;39891,300; 2310,600;44683,800;88,68979
1130,88;40375,400; 2301,200;45196,100;88,76160
1135,29;41081,400; 2423,100;45857,400;89,00408
1139,70;41736,100; 2288,100;46461,700;89,30221
1144,11;42338,700; 2306,000;47061,800;89,44695
1148,51;42917,900; 2313,600;47677,600;89,50776
1152,90;43072,100; 2332,800;47946,200;89,31432
1157,29;43361,100; 2292,900;48421,700;89,02941
1161,68;43443,400; 2313,100;48619,300;88,82245
1166,06;43542,600; 2309,600;48732,900;88,81962
1170,44;43412,700; 2366,100;48547,000;88,88220
1174,81;42698,600; 2318,600;47745,300;88,89045
1179,18;42501,900; 2329,700;47463,900;89,00612
1183,54;42179,700; 2345,800;47060,900;89,08378
1187,90;42086,700; 2377,500;46950,700;89,08761
1192,25;41363,700; 2344,700;46149,700;89,07431
1196,60;41019,900; 2296,300;45763,400;89,08715
1200,94;40588,600; 2354,600;45323,500;88,98063
1205,28;39821,100; 2332,300;44562,200;88,77312
1209,62;39339,900; 2337,500;44056,300;88,69479
1213,95;38978,800; 2380,000;43765,500;88,43387
1218,27;38197,600; 2311,400;43022,100;88,14931
1222,59;37310,400; 2400,700;42056,700;88,03132
1226,91;36800,000; 2335,900;41649,600;87,66435
1231,22;35909,700; 2314,200;40767,800;87,36633
1235,52;35023,200; 2271,300;39901,100;87,03714
1239,82;34545,900; 2322,400;39388,100;86,93617
1244,12;33581,100; 2318,100;38438,000;86,55340
1248,41;33018,400; 2354,100;37852,300;86,38269
1252,70;32216,600; 2253,500;37010,900;86,20639
1256,98;31920,900; 2299,300;36667,700;86,18848
1261,26;31473,700; 2367,800;36177,100;86,08844
1265,53;30631,800; 2238,400;35319,900;85,82864
1269,80;30304,200; 2285,700;34968,200;85,72937
1274,06;29772,500; 2342,500;34372,200;85,63927
1278,32;29201,400; 2321,300;33766,300;85,48291
1282,57;28856,700; 2318,100;33423,400;85,31858
1286,82;28258,600; 2307,600;32829,200;85,02503
1291,06;27732,600; 2356,700;32275,900;84,81477
1295,30;27327,700; 2338,100;31892,600;84,55430
1299,53;26960,800; 2338,200;31647,500;84,00951
1303,76;26371,800; 2323,600;31079,700;83,62817
1307,99;25826,400; 2367,800;30595,000;83,10637
1312,20;25230,100; 2359,900;30024,100;82,67074
1316,42;24296,100; 2280,800;29032,600;82,29465
1320,63;23759,400; 2300,900;28458,500;82,03543
1324,83;23081,300; 2245,000;27777,100;81,60825
1329,03;22469,400; 2317,800;27170,400;81,08447
1333,23;21902,300; 2274,500;26672,500;80,44840
1337,42;21462,200; 2337,300;26255,200;79,96062
1341,60;20859,600; 2270,000;25620,600;79,61080
1345,78;20339,100; 2322,700;25115,000;79,04599
1349,96;19706,400; 2241,600;24490,500;78,49736
1354,13;18905,900; 2280,700;23745,200;77,45440
1358,29;18279,400; 2244,300;23082,400;76,95087
1362,46;17609,900; 2319,600;22366,700;76,27188
1366,61;17120,000; 2323,300;21817,100;75,90465
1370,76;16591,600; 2261,900;21157,200;75,83738
1374,91;16260,500; 2372,400;20568,000;76,32669
1379,05;15863,300; 2274,100;19879,800;77,18637
1383,18;15879,600; 2400,400;19767,200;77,61476
1387,32;15803,000; 2240,200;19676,200;77,78619
1391,44;15947,400; 2273,200;19905,300;77,55287
1395,56;16139,200; 2416,900;20153,000;77,36932
1399,68;16166,100; 2211,300;20249,800;77,36120
1403,79;16348,100; 2272,300;20517,600;77,14754
1407,90;16264,500; 2245,600;20456,300;76,98166
1412,00;16367,400; 2271,700;20615,900;76,84009
1416,10;16309,800; 2318,300;20574,800;76,63846
1420,19;16132,900; 2266,200;20394,400;76,49243
1424,27;16087,700; 2289,200;20322,000;76,51890
1428,36;16072,900; 2300,300;20186,500;77,00126
1432,43;15959,600; 2322,800;20034,000;76,99535
1436,50;15731,400; 2262,400;19772,900;76,91956
1440,57;15767,000; 2312,900;19797,100;76,95005
1444,63;15547,900; 2279,300;19549,200;76,83079
1448,69;15446,900; 2235,800;19361,400;77,14241
1452,74;15428,700; 2272,400;19303,800;77,24732
1456,79;15326,500; 2232,800;19131,100;77,48531
1460,83;15184,600; 2263,600;18961,800;77,37960
1464,87;15022,000; 2350,200;18781,300;77,12083
1468,90;15025,100; 2310,200;18791,500;77,14743
1472,93;14805,000; 2306,900;18491,800;77,22074
1476,95;14669,900; 2315,800;18328,800;77,15044
1480,96;14514,300; 2282,900;18145,100;77,11036
1484,98;14427,000; 2291,100;18038,800;77,06459
1488,98;14277,300; 2297,500;17808,200;77,23571
1492,98;14165,100; 2311,900;17607,700;77,49317
1496,98;13990,700; 2283,500;17361,700;77,64322
1500,97;13883,500; 2313,000;17233,100;77,54975
1504,96;13744,700; 2226,000;17033,400;77,79016
1508,94;13740,000; 2304,800;17050,500;77,54939
1512,92;13601,900; 2244,700;16883,900;77,58074
1516,89;13523,100; 2245,000;16798,700;77,49301
1520,85;13429,300; 2249,200;16740,000;77,15309
1524,81;13333,700; 2344,200;16642,100;76,86094
1528,77;13148,300; 2238,800;16473,000;76,64287
1532,72;13023,100; 2252,300;16334,200;76,48684
1536,67;12934,500; 2346,800;16198,700;76,43500
1540,61;12711,300; 2261,900;15919,100;76,51202
1544,54;12649,800; 2298,100;15815,100;76,58282
1548,47;12401,700; 2230,000;15593,800;76,11383
1552,40;12263,300; 2281,600;15410,700;76,02730
1556,32;12149,400; 2276,600;15285,000;75,89558
1560,23;11947,800; 2270,100;14999,600;76,02577
1564,15;11909,300; 2284,800;14941,900;76,04033
1568,05;11764,600; 2254,700;14763,000;76,02872
1571,95;11615,600; 2299,800;14583,200;75,84057
1575,84;11444,600; 2264,700;14396,200;75,66995
1579,73;11252,800; 2278,600;14216,200;75,17591
1583,62;11116,500; 2291,000;14037,500;75,13302
1587,50;10946,200; 2227,300;13824,900;75,17849
1591,37;10937,600; 2341,500;13765,300;75,24729
1595,24;10743,700; 2290,900;13552,200;75,06061
1599,11;10511,000; 2218,500;13299,400;74,83598
1602,96;10368,200; 2233,800;13148,300;74,52838
1606,82;10114,100; 2199,200;12931,900;73,74566
1610,67; 9946,400; 2259,900;12768,200;73,14694
1614,51; 9784,600; 2253,600;12662,100;72,35433
1618,35; 9482,600; 2200,500;12443,200;71,09551
1622,18; 9277,200; 2259,000;12320,000;69,75649
1626,01; 9068,200; 2261,500;12204,900;68,45445
1629,83; 8837,500; 2264,200;12060,300;67,10119
1633,65; 8640,000; 2285,600;11926,300;65,91223
1637,46; 8338,200; 2232,700;11710,000;64,42236
1641,27; 8115,600; 2240,500;11611,900;62,69181
1645,07; 7899,700; 2223,100;11460,600;61,45169
1648,86; 7671,600; 2252,200;11293,600;59,93983
1652,66; 7549,200; 2239,700;11231,400;59,04890
1656,44; 7407,000; 2248,900;11068,200;58,48650
1660,22; 7383,700; 2279,900;10946,100;58,89317
1664,00; 7461,600; 2293,300;10899,400;60,05392
1667,77; 7507,900; 2255,400;10706,100;62,15461
1671,53; 7542,000; 2267,200;10535,100;63,79855
1675,29; 7541,000; 2218,100;10422,700;64,87702
1679,05; 7583,400; 2268,300;10347,700;65,78583
1682,80; 7518,600; 2250,400;10217,700;66,12278
1686,54; 7509,000; 2284,500;10131,800;66,57704
1690,28; 7483,600; 2278,500;10016,500;67,26674
1694,01; 7348,400; 2220,600; 9797,600;67,67586
1697,74; 7254,600; 2222,200; 9685,200;67,43133
1701,46; 7226,100; 2264,100; 9639,900;67,27406
1705,18; 7105,800; 2239,900; 9483,800;67,17238
1708,89; 6985,800; 2178,500; 9321,400;67,30180
1712,60; 7027,300; 2263,700; 9310,100;67,60332
1716,30; 6994,200; 2296,000; 9229,900;67,75696
1720,00; 6961,000; 2272,600; 9164,500;68,02768
1723,69; 6889,100; 2274,100; 9040,800;68,20163
1727,38; 6748,300; 2189,500; 8867,100;68,27004
1731,06; 6764,000; 2257,500; 8834,400;68,52012
1734,73; 6688,000; 2236,800; 8714,100;68,71999
1738,40; 6653,500; 2214,400; 8628,400;69,20954
1742,07; 6680,500; 2286,100; 8625,700;69,31668
1745,73; 6606,800; 2245,800; 8533,600;69,35653
1749,38; 6571,900; 2278,500; 8445,700;69,61668

