135-2
Integration time [ms]:  15,000
Averaging Nr. [scans]: 10
Smoothing Nr. [pixels]: 0
Data measured with spectrometer [name]: 1204091U1
Wave   ;Sample   ;Dark     ;Reference;Reflectance
[nm]   ;[counts] ;[counts] ;[counts] ;[%]

1014,48;19646,200; 2348,500;19637,500;100,05032
1019,01;20835,500; 2352,700;20829,700;100,03139
1023,54;21960,400; 2377,000;21962,200;99,99081
1028,07;23021,900; 2352,700;23028,700;99,96711
1032,59;24153,400; 2345,300;24165,800;99,94317
1037,10;25612,100; 2317,300;25614,800;99,98841
1041,62;26769,400; 2350,000;26799,400;99,87730
1046,12;28029,600; 2427,500;28080,800;99,80042
1050,62;28861,800; 2344,700;28925,600;99,75998
1055,12;29729,200; 2300,600;29808,600;99,71136
1059,62;30661,700; 2304,000;30750,500;99,68784
1064,10;31852,400; 2352,400;31934,300;99,72314
1068,59;32815,600; 2395,400;32879,900;99,78907
1073,07;33943,200; 2329,700;33988,100;99,85817
1077,54;34862,500; 2333,200;34909,400;99,85603
1082,01;36027,500; 2383,100;36084,400;99,83116
1086,48;36922,900; 2367,300;37013,200;99,73936
1090,94;37554,800; 2303,100;37697,100;99,59795
1095,39;38809,200; 2435,000;38991,300;99,50186
1099,85;39916,600; 2333,800;40179,000;99,30665
1104,29;40750,300; 2343,900;41108,400;99,07622
1108,73;41580,000; 2303,100;42037,300;98,84910
1113,17;42195,600; 2407,700;42761,500;98,59765
1117,61;42771,900; 2355,500;43454,900;98,33818
1122,03;43286,400; 2409,900;44116,600;98,00943
1126,46;43755,900; 2310,600;44683,800;97,81017
1130,88;44274,300; 2301,200;45196,100;97,85103
1135,29;45017,100; 2423,100;45857,400;98,06535
1139,70;45710,500; 2288,100;46461,700;98,29944
1144,11;46357,000; 2306,000;47061,800;98,42523
1148,51;46948,500; 2313,600;47677,600;98,39278
1152,90;47142,600; 2332,800;47946,200;98,23824
1157,29;47543,100; 2292,900;48421,700;98,09533
1161,68;47669,200; 2313,100;48619,300;97,94822
1166,06;47705,600; 2309,600;48732,900;97,78710
1170,44;47477,300; 2366,100;48547,000;97,68367
1174,81;46687,300; 2318,600;47745,300;97,67097
1179,18;46463,100; 2329,700;47463,900;97,78261
1183,54;46137,700; 2345,800;47060,900;97,93537
1187,90;46107,700; 2377,500;46950,700;98,10873
1192,25;45419,300; 2344,700;46149,700;98,33261
1196,60;45116,900; 2296,300;45763,400;98,51267
1200,94;44712,100; 2354,600;45323,500;98,57711
1205,28;43953,600; 2332,300;44562,200;98,55884
1209,62;43463,400; 2337,500;44056,300;98,57882
1213,95;43150,000; 2380,000;43765,500;98,51276
1218,27;42387,600; 2311,400;43022,100;98,44144
1222,59;41421,900; 2400,700;42056,700;98,39923
1226,91;40983,400; 2335,900;41649,600;98,30543
1231,22;40077,500; 2314,200;40767,800;98,20485
1235,52;39177,400; 2271,300;39901,100;98,07679
1239,82;38632,100; 2322,400;39388,100;97,96038
1244,12;37661,600; 2318,100;38438,000;97,85049
1248,41;37088,700; 2354,100;37852,300;97,84891
1252,70;36248,100; 2253,500;37010,900;97,80536
1256,98;35886,900; 2299,300;36667,700;97,72815
1261,26;35400,400; 2367,800;36177,100;97,70270
1265,53;34550,000; 2238,400;35319,900;97,67272
1269,80;34209,700; 2285,700;34968,200;97,67919
1274,06;33612,300; 2342,500;34372,200;97,62751
1278,32;32987,000; 2321,300;33766,300;97,52170
1282,57;32632,800; 2318,100;33423,400;97,45831
1286,82;32007,400; 2307,600;32829,200;97,30748
1291,06;31434,000; 2356,700;32275,900;97,18609
1295,30;31042,200; 2338,100;31892,600;97,12260
1299,53;30753,900; 2338,200;31647,500;96,95114
1303,76;30163,700; 2323,600;31079,700;96,81459
1307,99;29664,900; 2367,800;30595,000;96,70495
1312,20;29076,200; 2359,900;30024,100;96,57355
1316,42;28093,100; 2280,800;29032,600;96,48809
1320,63;27508,600; 2300,900;28458,500;96,36855
1324,83;26829,700; 2245,000;27777,100;96,28938
1329,03;26204,300; 2317,800;27170,400;96,11268
1333,23;25673,900; 2274,500;26672,500;95,90704
1337,42;25225,900; 2337,300;26255,200;95,69653
1341,60;24565,700; 2270,000;25620,600;95,48234
1345,78;24021,600; 2322,700;25115,000;95,20277
1349,96;23357,100; 2241,600;24490,500;94,90582
1354,13;22596,100; 2280,700;23745,200;94,64651
1358,29;21928,500; 2244,300;23082,400;94,46255
1362,46;21208,400; 2319,600;22366,700;94,22211
1366,61;20676,500; 2323,300;21817,100;94,14891
1370,76;20044,400; 2261,900;21157,200;94,11070
1374,91;19453,500; 2372,400;20568,000;93,87489
1379,05;18792,700; 2274,100;19879,800;93,82530
1383,18;18687,600; 2400,400;19767,200;93,78354
1387,32;18563,800; 2240,200;19676,200;93,62010
1391,44;18741,900; 2273,200;19905,300;93,40181
1395,56;18956,100; 2416,900;20153,000;93,25162
1399,68;18996,500; 2211,300;20249,800;93,05208
1403,79;19213,900; 2272,300;20517,600;92,85460
1407,90;19151,200; 2245,600;20456,300;92,83333
1412,00;19313,500; 2271,700;20615,900;92,90021
1416,10;19294,300; 2318,300;20574,800;92,98606
1420,19;19145,200; 2266,200;20394,400;93,10908
1424,27;19104,300; 2289,200;20322,000;93,24730
1428,36;19022,600; 2300,300;20186,500;93,49275
1432,43;18908,400; 2322,800;20034,000;93,64470
1436,50;18696,300; 2262,400;19772,900;93,85169
1440,57;18713,600; 2312,900;19797,100;93,80298
1444,63;18496,000; 2279,300;19549,200;93,90153
1448,69;18333,300; 2235,800;19361,400;93,99671
1452,74;18307,700; 2272,400;19303,800;94,15139
1456,79;18143,600; 2232,800;19131,100;94,15622
1460,83;17993,300; 2263,600;18961,800;94,19997
1464,87;17837,700; 2350,200;18781,300;94,25723
1468,90;17863,000; 2310,200;18791,500;94,36634
1472,93;17596,000; 2306,900;18491,800;94,46521
1476,95;17444,900; 2315,800;18328,800;94,48011
1480,96;17282,800; 2282,900;18145,100;94,56381
1484,98;17189,900; 2291,100;18038,800;94,60937
1488,98;16986,100; 2297,500;17808,200;94,69979
1492,98;16796,600; 2311,900;17607,700;94,69724
1496,98;16572,300; 2283,500;17361,700;94,76463
1500,97;16450,800; 2313,000;17233,100;94,75674
1504,96;16264,600; 2226,000;17033,400;94,80800
1508,94;16286,400; 2304,800;17050,500;94,81815
1512,92;16118,000; 2244,700;16883,900;94,76816
1516,89;16029,300; 2245,000;16798,700;94,71337
1520,85;15973,600; 2249,200;16740,000;94,71113
1524,81;15882,800; 2344,200;16642,100;94,68943
1528,77;15698,000; 2238,800;16473,000;94,55537
1532,72;15559,800; 2252,300;16334,200;94,50074
1536,67;15438,800; 2346,800;16198,700;94,51411
1540,61;15171,300; 2261,900;15919,100;94,52450
1544,54;15073,600; 2298,100;15815,100;94,51432
1548,47;14846,800; 2230,000;15593,800;94,41027
1552,40;14669,200; 2281,600;15410,700;94,35224
1556,32;14542,600; 2276,600;15285,000;94,29292
1560,23;14271,900; 2270,100;14999,600;94,28336
1564,15;14215,600; 2284,800;14941,900;94,26172
1568,05;14035,200; 2254,700;14763,000;94,18146
1571,95;13862,900; 2299,800;14583,200;94,13599
1575,84;13668,600; 2264,700;14396,200;94,00239
1579,73;13476,600; 2278,600;14216,200;93,80445
1583,62;13305,400; 2291,000;14037,500;93,76751
1587,50;13086,700; 2227,300;13824,900;93,63489
1591,37;13031,600; 2341,500;13765,300;93,57744
1595,24;12817,500; 2290,900;13552,200;93,47589
1599,11;12554,200; 2218,500;13299,400;93,27491
1602,96;12372,300; 2233,800;13148,300;92,89019
1606,82;12119,600; 2199,200;12931,900;92,43154
1610,67;11894,200; 2259,900;12768,200;91,68277
1614,51;11707,500; 2253,600;12662,100;90,82865
1618,35;11424,600; 2200,500;12443,200;90,05536
1622,18;11199,600; 2259,000;12320,000;88,86393
1626,01;10968,900; 2261,500;12204,900;87,56964
1629,83;10687,800; 2264,200;12060,300;85,98932
1633,65;10416,800; 2285,600;11926,300;84,34242
1637,46;10043,100; 2232,700;11710,000;82,41166
1641,27; 9749,200; 2240,500;11611,900;80,12357
1645,07; 9421,300; 2223,100;11460,600;77,92368
1648,86; 9120,200; 2252,200;11293,600;75,96169
1652,66; 8929,800; 2239,700;11231,400;74,40306
1656,44; 8732,000; 2248,900;11068,200;73,51037
1660,22; 8627,600; 2279,900;10946,100;73,24664
1664,00; 8701,800; 2293,300;10899,400;74,46462
1667,77; 8778,700; 2255,400;10706,100;77,19242
1671,53; 8853,100; 2267,200;10535,100;79,65626
1675,29; 8870,200; 2218,100;10422,700;81,07769
1679,05; 8902,100; 2268,300;10347,700;82,10758
1682,80; 8825,700; 2250,400;10217,700;82,52859
1686,54; 8846,100; 2284,500;10131,800;83,61602
1690,28; 8828,500; 2278,500;10016,500;84,64720
1694,01; 8667,000; 2220,600; 9797,600;85,07853
1697,74; 8552,400; 2222,200; 9685,200;84,82112
1701,46; 8485,000; 2264,100; 9639,900;84,34204
1705,18; 8359,800; 2239,900; 9483,800;84,48350
1708,89; 8207,800; 2178,500; 9321,400;84,40969
1712,60; 8204,600; 2263,700; 9310,100;84,31114
1716,30; 8145,600; 2296,000; 9229,900;84,36234
1720,00; 8090,800; 2272,600; 9164,500;84,42084
1723,69; 8003,200; 2274,100; 9040,800;84,66609
1727,38; 7874,500; 2189,500; 8867,100;85,13538
1731,06; 7890,100; 2257,500; 8834,400;85,64217
1734,73; 7802,200; 2236,800; 8714,100;85,92160
1738,40; 7760,500; 2214,400; 8628,400;86,46866
1742,07; 7795,200; 2286,100; 8625,700;86,89980
1745,73; 7733,000; 2245,800; 8533,600;87,26741
1749,38; 7674,900; 2278,500; 8445,700;87,50162

