202
Integration time [ms]:  15,000
Averaging Nr. [scans]: 10
Smoothing Nr. [pixels]: 0
Data measured with spectrometer [name]: 1204091U1
Wave   ;Sample   ;Dark     ;Reference;Reflectance
[nm]   ;[counts] ;[counts] ;[counts] ;[%]

1014,48;14415,100; 2348,500;19637,500;69,79351
1019,01;15127,600; 2352,700;20829,700;69,13947
1023,54;15833,800; 2377,000;21962,200;68,70903
1028,07;16457,900; 2352,700;23028,700;68,22016
1032,59;17127,600; 2345,300;24165,800;67,74501
1037,10;18011,800; 2317,300;25614,800;67,36560
1041,62;18730,000; 2350,000;26799,400;66,99551
1046,12;19543,700; 2427,500;28080,800;66,72124
1050,62;20029,500; 2344,700;28925,600;66,53198
1055,12;20545,800; 2300,600;29808,600;66,32689
1059,62;21099,900; 2304,000;30750,500;66,07456
1064,10;21834,400; 2352,400;31934,300;65,85784
1068,59;22380,000; 2395,400;32879,900;65,55659
1073,07;22987,900; 2329,700;33988,100;65,25346
1077,54;23485,500; 2333,200;34909,400;64,93176
1082,01;24150,500; 2383,100;36084,400;64,58920
1086,48;24648,200; 2367,300;37013,200;64,31035
1090,94;24944,300; 2303,100;37697,100;63,96903
1095,39;25692,700; 2435,000;38991,300;63,62159
1099,85;26290,100; 2333,800;40179,000;63,30076
1104,29;26750,700; 2343,900;41108,400;62,96173
1108,73;27182,700; 2303,100;42037,300;62,61508
1113,17;27542,000; 2407,700;42761,500;62,28484
1117,61;27831,200; 2355,500;43454,900;61,98558
1122,03;28109,900; 2409,900;44116,600;61,62079
1126,46;28268,400; 2310,600;44683,800;61,25995
1130,88;28391,800; 2301,200;45196,100;60,82448
1135,29;28603,400; 2423,100;45857,400;60,27563
1139,70;28636,700; 2288,100;46461,700;59,64784
1144,11;28656,500; 2306,000;47061,800;58,87617
1148,51;28640,500; 2313,600;47677,600;58,03479
1152,90;28402,200; 2332,800;47946,200;57,15294
1157,29;28190,400; 2292,900;48421,700;56,14172
1161,68;27730,300; 2313,100;48619,300;54,88941
1166,06;27227,800; 2309,600;48732,900;53,67606
1170,44;26794,400; 2366,100;48547,000;52,89698
1174,81;25998,900; 2318,600;47745,300;52,12859
1179,18;25352,900; 2329,700;47463,900;51,01054
1183,54;24500,100; 2345,800;47060,900;49,54546
1187,90;23815,200; 2377,500;46950,700;48,09549
1192,25;22800,600; 2344,700;46149,700;46,69764
1196,60;21859,500; 2296,300;45763,400;45,00691
1200,94;20923,600; 2354,600;45323,500;43,21498
1205,28;19948,000; 2332,300;44562,200;41,71381
1209,62;19331,900; 2337,500;44056,300;40,73559
1213,95;19171,700; 2380,000;43765,500;40,57387
1218,27;19187,600; 2311,400;43022,100;41,45397
1222,59;19523,600; 2400,700;42056,700;43,17859
1226,91;20078,600; 2335,900;41649,600;45,13109
1231,22;20281,300; 2314,200;40767,800;46,72410
1235,52;20279,700; 2271,300;39901,100;47,85675
1239,82;20332,500; 2322,400;39388,100;48,58967
1244,12;20053,500; 2318,100;38438,000;49,10146
1248,41;19911,500; 2354,100;37852,300;49,45997
1252,70;19496,700; 2253,500;37010,900;49,61015
1256,98;19388,600; 2299,300;36667,700;49,72387
1261,26;19180,800; 2367,800;36177,100;49,72892
1265,53;18657,400; 2238,400;35319,900;49,63197
1269,80;18486,600; 2285,700;34968,200;49,57057
1274,06;18175,300; 2342,500;34372,200;49,43162
1278,32;17804,900; 2321,300;33766,300;49,24026
1282,57;17579,300; 2318,100;33423,400;49,06302
1286,82;17221,900; 2307,600;32829,200;48,86474
1291,06;16913,600; 2356,700;32275,900;48,65404
1295,30;16673,600; 2338,100;31892,600;48,50530
1299,53;16506,400; 2338,200;31647,500;48,34029
1303,76;16164,200; 2323,600;31079,700;48,13101
1307,99;15916,300; 2367,800;30595,000;47,99803
1312,20;15592,800; 2359,900;30024,100;47,83402
1316,42;15028,900; 2280,800;29032,600;47,65324
1320,63;14712,900; 2300,900;28458,500;47,45084
1324,83;14311,100; 2245,000;27777,100;47,25855
1329,03;13997,300; 2317,800;27170,400;46,99508
1333,23;13671,100; 2274,500;26672,500;46,71121
1337,42;13441,000; 2337,300;26255,200;46,42423
1341,60;13024,400; 2270,000;25620,600;46,05620
1345,78;12740,600; 2322,700;25115,000;45,70798
1349,96;12311,900; 2241,600;24490,500;45,26201
1354,13;11888,300; 2280,700;23745,200;44,76042
1358,29;11457,700; 2244,300;23082,400;44,21420
1362,46;11034,000; 2319,600;22366,700;43,46963
1366,61;10611,500; 2323,300;21817,100;42,51711
1370,76;10125,100; 2261,900;21157,200;41,61458
1374,91; 9754,900; 2372,400;20568,000;40,57300
1379,05; 9230,800; 2274,100;19879,800;39,51391
1383,18; 9083,900; 2400,400;19767,200;38,48435
1387,32; 8756,900; 2240,200;19676,200;37,37497
1391,44; 8656,100; 2273,200;19905,300;36,20045
1395,56; 8810,800; 2416,900;20153,000;36,05020
1399,68; 8813,100; 2211,300;20249,800;36,59839
1403,79; 8929,600; 2272,300;20517,600;36,48775
1407,90; 8797,700; 2245,600;20456,300;35,97940
1412,00; 8780,600; 2271,700;20615,900;35,48206
1416,10; 8737,100; 2318,300;20574,800;35,15898
1420,19; 8662,200; 2266,200;20394,400;35,28205
1424,27; 8668,000; 2289,200;20322,000;35,37332
1428,36; 8656,900; 2300,300;20186,500;35,53913
1432,43; 8632,500; 2322,800;20034,000;35,62548
1436,50; 8513,500; 2262,400;19772,900;35,69915
1440,57; 8581,900; 2312,900;19797,100;35,85523
1444,63; 8522,700; 2279,300;19549,200;36,15192
1448,69; 8463,500; 2235,800;19361,400;36,36486
1452,74; 8485,100; 2272,400;19303,800;36,47792
1456,79; 8421,000; 2232,800;19131,100;36,62025
1460,83; 8398,000; 2263,600;18961,800;36,73689
1464,87; 8401,900; 2350,200;18781,300;36,83077
1468,90; 8416,900; 2310,200;18791,500;37,05230
1472,93; 8326,600; 2306,900;18491,800;37,19331
1476,95; 8274,800; 2315,800;18328,800;37,21351
1480,96; 8194,100; 2282,900;18145,100;37,26595
1484,98; 8153,700; 2291,100;18038,800;37,22829
1488,98; 8064,600; 2297,500;17808,200;37,18143
1492,98; 7990,900; 2311,900;17607,700;37,12784
1496,98; 7868,700; 2283,500;17361,700;37,04156
1500,97; 7822,500; 2313,000;17233,100;36,92670
1504,96; 7676,500; 2226,000;17033,400;36,80930
1508,94; 7704,700; 2304,800;17050,500;36,62017
1512,92; 7583,000; 2244,700;16883,900;36,46579
1516,89; 7530,000; 2245,000;16798,700;36,31379
1520,85; 7477,900; 2249,200;16740,000;36,08289
1524,81; 7480,700; 2344,200;16642,100;35,92486
1528,77; 7319,200; 2238,800;16473,000;35,69150
1532,72; 7264,400; 2252,300;16334,200;35,59250
1536,67; 7242,000; 2346,800;16198,700;35,33956
1540,61; 7068,200; 2261,900;15919,100;35,19243
1544,54; 7066,100; 2298,100;15815,100;35,27410
1548,47; 6950,100; 2230,000;15593,800;35,32004
1552,40; 6925,400; 2281,600;15410,700;35,37028
1556,32; 6866,500; 2276,600;15285,000;35,28412
1560,23; 6754,600; 2270,100;14999,600;35,22919
1564,15; 6729,500; 2284,800;14941,900;35,11626
1568,05; 6644,800; 2254,700;14763,000;35,09750
1571,95; 6589,500; 2299,800;14583,200;34,92274
1575,84; 6484,600; 2264,700;14396,200;34,78465
1579,73; 6416,200; 2278,600;14216,200;34,66023
1583,62; 6344,200; 2291,000;14037,500;34,50560
1587,50; 6214,100; 2227,300;13824,900;34,37608
1591,37; 6259,600; 2341,500;13765,300;34,29769
1595,24; 6133,400; 2290,900;13552,200;34,12128
1599,11; 5992,300; 2218,500;13299,400;34,05680
1602,96; 5925,500; 2233,800;13148,300;33,82381
1606,82; 5815,600; 2199,200;12931,900;33,69516
1610,67; 5775,500; 2259,900;12768,200;33,45546
1614,51; 5720,200; 2253,600;12662,100;33,30547
1618,35; 5594,300; 2200,500;12443,200;33,13384
1622,18; 5571,500; 2259,000;12320,000;32,92416
1626,01; 5518,200; 2261,500;12204,900;32,75238
1629,83; 5453,500; 2264,200;12060,300;32,55683
1633,65; 5401,900; 2285,600;11926,300;32,32442
1637,46; 5271,000; 2232,700;11710,000;32,05871
1641,27; 5210,600; 2240,500;11611,900;31,69324
1645,07; 5127,900; 2223,100;11460,600;31,44574
1648,86; 5074,700; 2252,200;11293,600;31,21751
1652,66; 5012,100; 2239,700;11231,400;30,83288
1656,44; 4931,100; 2248,900;11068,200;30,41284
1660,22; 4886,500; 2279,900;10946,100;30,07777
1664,00; 4841,400; 2293,300;10899,400;29,60807
1667,77; 4716,300; 2255,400;10706,100;29,12066
1671,53; 4622,700; 2267,200;10535,100;28,48970
1675,29; 4505,600; 2218,100;10422,700;27,88070
1679,05; 4459,200; 2268,300;10347,700;27,11711
1682,80; 4345,400; 2250,400;10217,700;26,29498
1686,54; 4290,900; 2284,500;10131,800;25,56803
1690,28; 4168,800; 2278,500;10016,500;24,42879
1694,01; 3991,800; 2220,600; 9797,600;23,37601
1697,74; 3875,700; 2222,200; 9685,200;22,15597
1701,46; 3788,100; 2264,100; 9639,900;20,66217
1705,18; 3622,600; 2239,900; 9483,800;19,08778
1708,89; 3426,400; 2178,500; 9321,400;17,47050
1712,60; 3405,600; 2263,700; 9310,100;16,20544
1716,30; 3347,400; 2296,000; 9229,900;15,16318
1720,00; 3263,600; 2272,600; 9164,500;14,37920
1723,69; 3195,500; 2274,100; 9040,800;13,61668
1727,38; 3054,800; 2189,500; 8867,100;12,95825
1731,06; 3102,300; 2257,500; 8834,400;12,84496
1734,73; 3138,900; 2236,800; 8714,100;13,92710
1738,40; 3209,200; 2214,400; 8628,400;15,50982
1742,07; 3338,000; 2286,100; 8625,700;16,59253
1745,73; 3325,300; 2245,800; 8533,600;17,16817
1749,38; 3372,600; 2278,500; 8445,700;17,74063

