306
Integration time [ms]:  15,000
Averaging Nr. [scans]: 10
Smoothing Nr. [pixels]: 0
Data measured with spectrometer [name]: 1204091U1
Wave   ;Sample   ;Dark     ;Reference;Reflectance
[nm]   ;[counts] ;[counts] ;[counts] ;[%]

1014,48;17952,500; 2348,500;19637,500;90,25392
1019,01;18957,500; 2352,700;20829,700;89,86740
1023,54;19925,500; 2377,000;21962,200;89,60082
1028,07;20821,000; 2352,700;23028,700;89,32240
1032,59;21797,900; 2345,300;24165,800;89,14828
1037,10;23038,100; 2317,300;25614,800;88,94002
1041,62;24045,400; 2350,000;26799,400;88,73592
1046,12;25127,600; 2427,500;28080,800;88,48803
1050,62;25812,000; 2344,700;28925,600;88,28633
1055,12;26521,700; 2300,600;29808,600;88,05111
1059,62;27286,200; 2304,000;30750,500;87,82170
1064,10;28270,100; 2352,400;31934,300;87,61337
1068,59;29031,600; 2395,400;32879,900;87,37621
1073,07;29922,400; 2329,700;33988,100;87,15759
1077,54;30638,800; 2333,200;34909,400;86,89043
1082,01;31578,700; 2383,100;36084,400;86,63049
1086,48;32278,500; 2367,300;37013,200;86,33403
1090,94;32739,400; 2303,100;37697,100;85,99282
1095,39;33729,700; 2435,000;38991,300;85,60686
1099,85;34559,800; 2333,800;40179,000;85,15215
1104,29;35126,000; 2343,900;41108,400;84,56732
1108,73;35611,600; 2303,100;42037,300;83,82829
1113,17;35821,500; 2407,700;42761,500;82,80212
1117,61;35828,600; 2355,500;43454,900;81,44425
1122,03;35654,600; 2409,900;44116,600;79,71069
1126,46;35201,300; 2310,600;44683,800;77,62147
1130,88;34544,600; 2301,200;45196,100;75,16838
1135,29;33912,400; 2423,100;45857,400;72,49869
1139,70;33351,800; 2288,100;46461,700;70,32187
1144,11;33472,900; 2306,000;47061,800;69,63768
1148,51;34432,100; 2313,600;47677,600;70,80174
1152,90;35672,300; 2332,800;47946,200;73,09146
1157,29;37021,000; 2292,900;48421,700;75,28507
1161,68;37795,500; 2313,100;48619,300;76,62559
1166,06;38123,900; 2309,600;48732,900;77,14725
1170,44;38040,200; 2366,100;48547,000;77,24860
1174,81;37325,900; 2318,600;47745,300;77,06327
1179,18;36945,700; 2329,700;47463,900;76,69572
1183,54;36347,900; 2345,800;47060,900;76,04165
1187,90;35876,600; 2377,500;46950,700;75,15525
1192,25;34902,800; 2344,700;46149,700;74,32508
1196,60;34292,700; 2296,300;45763,400;73,61062
1200,94;33717,600; 2354,600;45323,500;72,99000
1205,28;33021,700; 2332,300;44562,200;72,67221
1209,62;32679,500; 2337,500;44056,300;72,72980
1213,95;32616,200; 2380,000;43765,500;73,05989
1218,27;32312,400; 2311,400;43022,100;73,69316
1222,59;31876,400; 2400,700;42056,700;74,32847
1226,91;31776,400; 2335,900;41649,600;74,88611
1231,22;31268,000; 2314,200;40767,800;75,29542
1235,52;30716,700; 2271,300;39901,100;75,59275
1239,82;30384,300; 2322,400;39388,100;75,70854
1244,12;29683,300; 2318,100;38438,000;75,76211
1248,41;29242,900; 2354,100;37852,300;75,74694
1252,70;28552,500; 2253,500;37010,900;75,66446
1256,98;28273,600; 2299,300;36667,700;75,57611
1261,26;27876,200; 2367,800;36177,100;75,44788
1265,53;27126,400; 2238,400;35319,900;75,23238
1269,80;26824,600; 2285,700;34968,200;75,08269
1274,06;26321,800; 2342,500;34372,200;74,86583
1278,32;25786,300; 2321,300;33766,300;74,62236
1282,57;25462,300; 2318,100;33423,400;74,40597
1286,82;24935,300; 2307,600;32829,200;74,13668
1291,06;24452,200; 2356,700;32275,900;73,85057
1295,30;24098,000; 2338,100;31892,600;73,62635
1299,53;23839,500; 2338,200;31647,500;73,35999
1303,76;23340,200; 2323,600;31079,700;73,08571
1307,99;22942,000; 2367,800;30595,000;72,88785
1312,20;22461,500; 2359,900;30024,100;72,66286
1316,42;21617,700; 2280,800;29032,600;72,28261
1320,63;21110,600; 2300,900;28458,500;71,90912
1324,83;20526,400; 2245,000;27777,100;71,60163
1329,03;20030,500; 2317,800;27170,400;71,27101
1333,23;19577,300; 2274,500;26672,500;70,91893
1337,42;19209,500; 2337,300;26255,200;70,54215
1341,60;18634,000; 2270,000;25620,600;70,07957
1345,78;18204,400; 2322,700;25115,000;69,68011
1349,96;17675,700; 2241,600;24490,500;69,37017
1354,13;17092,700; 2280,700;23745,200;69,00696
1358,29;16553,300; 2244,300;23082,400;68,66749
1362,46;15977,600; 2319,600;22366,700;68,12955
1366,61;15482,400; 2323,300;21817,100;67,50403
1370,76;14899,700; 2261,900;21157,200;66,88330
1374,91;14402,500; 2372,400;20568,000;66,11543
1379,05;13802,700; 2274,100;19879,800;65,48220
1383,18;13670,900; 2400,400;19767,200;64,89681
1387,32;13462,100; 2240,200;19676,200;64,36052
1391,44;13532,200; 2273,200;19905,300;63,85513
1395,56;13695,400; 2416,900;20153,000;63,59064
1399,68;13637,400; 2211,300;20249,800;63,34285
1403,79;13764,000; 2272,300;20517,600;62,98444
1407,90;13670,500; 2245,600;20456,300;62,73729
1412,00;13722,600; 2271,700;20615,900;62,42246
1416,10;13718,100; 2318,300;20574,800;62,44242
1420,19;13596,200; 2266,200;20394,400;62,49931
1424,27;13557,500; 2289,200;20322,000;62,48780
1428,36;13469,700; 2300,300;20186,500;62,44703
1432,43;13359,700; 2322,800;20034,000;62,31594
1436,50;13168,300; 2262,400;19772,900;62,28206
1440,57;13202,400; 2312,900;19797,100;62,28195
1444,63;13038,300; 2279,300;19549,200;62,29914
1448,69;12917,500; 2235,800;19361,400;62,37271
1452,74;12899,100; 2272,400;19303,800;62,39475
1456,79;12772,300; 2232,800;19131,100;62,37018
1460,83;12675,000; 2263,600;18961,800;62,35043
1464,87;12583,900; 2350,200;18781,300;62,28250
1468,90;12560,300; 2310,200;18791,500;62,19230
1472,93;12386,200; 2306,900;18491,800;62,27595
1476,95;12269,600; 2315,800;18328,800;62,16074
1480,96;12139,300; 2282,900;18145,100;62,13766
1484,98;12067,500; 2291,100;18038,800;62,08145
1488,98;11924,300; 2297,500;17808,200;62,06554
1492,98;11802,800; 2311,900;17607,700;62,04906
1496,98;11631,500; 2283,500;17361,700;61,99679
1500,97;11556,800; 2313,000;17233,100;61,95535
1504,96;11388,500; 2226,000;17033,400;61,87784
1508,94;11409,100; 2304,800;17050,500;61,74207
1512,92;11262,700; 2244,700;16883,900;61,60173
1516,89;11187,800; 2245,000;16798,700;61,44692
1520,85;11150,500; 2249,200;16740,000;61,42725
1524,81;11108,400; 2344,200;16642,100;61,29711
1528,77;10949,900; 2238,800;16473,000;61,19838
1532,72;10858,000; 2252,300;16334,200;61,11178
1536,67;10790,800; 2346,800;16198,700;60,95915
1540,61;10572,500; 2261,900;15919,100;60,85142
1544,54;10517,000; 2298,100;15815,100;60,80417
1548,47;10329,300; 2230,000;15593,800;60,60626
1552,40;10223,200; 2281,600;15410,700;60,48853
1556,32;10116,600; 2276,600;15285,000;60,26875
1560,23; 9923,600; 2270,100;14999,600;60,12412
1564,15; 9855,300; 2284,800;14941,900;59,81228
1568,05; 9709,000; 2254,700;14763,000;59,59483
1571,95; 9583,100; 2299,800;14583,200;59,29384
1575,84; 9420,100; 2264,700;14396,200;58,98199
1579,73; 9279,300; 2278,600;14216,200;58,64412
1583,62; 9129,000; 2291,000;14037,500;58,21308
1587,50; 8927,700; 2227,300;13824,900;57,77402
1591,37; 8878,900; 2341,500;13765,300;57,22614
1595,24; 8661,600; 2290,900;13552,200;56,57162
1599,11; 8409,100; 2218,500;13299,400;55,86730
1602,96; 8228,900; 2233,800;13148,300;54,92785
1606,82; 7988,800; 2199,200;12931,900;53,94356
1610,67; 7808,700; 2259,900;12768,200;52,80397
1614,51; 7611,100; 2253,600;12662,100;51,47235
1618,35; 7322,900; 2200,500;12443,200;50,01025
1622,18; 7120,400; 2259,000;12320,000;48,31925
1626,01; 6868,200; 2261,500;12204,900;46,32922
1629,83; 6611,800; 2264,200;12060,300;44,38093
1633,65; 6401,100; 2285,600;11926,300;42,68881
1637,46; 6154,300; 2232,700;11710,000;41,37887
1641,27; 6015,600; 2240,500;11611,900;40,28320
1645,07; 5831,900; 2223,100;11460,600;39,06685
1648,86; 5706,100; 2252,200;11293,600;38,20094
1652,66; 5590,800; 2239,700;11231,400;37,26881
1656,44; 5315,500; 2248,900;11068,200;34,77147
1660,22; 5002,200; 2279,900;10946,100;31,41285
1664,00; 4720,700; 2293,300;10899,400;28,20558
1667,77; 4415,100; 2255,400;10706,100;25,55646
1671,53; 4227,600; 2267,200;10535,100;23,71098
1675,29; 4089,200; 2218,100;10422,700;22,80550
1679,05; 4121,400; 2268,300;10347,700;22,93611
1682,80; 4130,800; 2250,400;10217,700;23,60147
1686,54; 4216,200; 2284,500;10131,800;24,61611
1690,28; 4269,800; 2278,500;10016,500;25,73404
1694,01; 4269,600; 2220,600; 9797,600;27,04237
1697,74; 4361,600; 2222,200; 9685,200;28,66676
1701,46; 4514,300; 2264,100; 9639,900;30,50788
1705,18; 4554,300; 2239,900; 9483,800;31,94964
1708,89; 4511,700; 2178,500; 9321,400;32,66460
1712,60; 4602,300; 2263,700; 9310,100;33,18858
1716,30; 4635,300; 2296,000; 9229,900;33,73715
1720,00; 4617,100; 2272,600; 9164,500;34,01820
1723,69; 4595,800; 2274,100; 9040,800;34,31067
1727,38; 4524,000; 2189,500; 8867,100;34,96017
1731,06; 4617,000; 2257,500; 8834,400;35,87556
1734,73; 4624,000; 2236,800; 8714,100;36,85486
1738,40; 4627,600; 2214,400; 8628,400;37,62395
1742,07; 4687,100; 2286,100; 8625,700;37,87305
1745,73; 4609,700; 2245,800; 8533,600;37,59503
1749,38; 4549,600; 2278,500; 8445,700;36,82546

