brokenwhitepooh
Integration time [ms]:  15,000
Averaging Nr. [scans]: 10
Smoothing Nr. [pixels]: 0
Data measured with spectrometer [name]: 1204091U1
Wave   ;Sample   ;Dark     ;Reference;Reflectance
[nm]   ;[counts] ;[counts] ;[counts] ;[%]

1014,48; 6130,400; 2348,500;19637,500;21,87460
1019,01; 6348,100; 2352,700;20829,700;21,62364
1023,54; 6581,600; 2377,000;21962,200;21,46825
1028,07; 6756,700; 2352,700;23028,700;21,30006
1032,59; 6966,000; 2345,300;24165,800;21,17596
1037,10; 7229,800; 2317,300;25614,800;21,08595
1041,62; 7461,500; 2350,000;26799,400;20,90644
1046,12; 7759,700; 2427,500;28080,800;20,78563
1050,62; 7839,200; 2344,700;28925,600;20,67086
1055,12; 7954,400; 2300,600;29808,600;20,55329
1059,62; 8127,800; 2304,000;30750,500;20,47282
1064,10; 8384,900; 2352,400;31934,300;20,39254
1068,59; 8580,300; 2395,400;32879,900;20,28867
1073,07; 8729,700; 2329,700;33988,100;20,21580
1077,54; 8887,700; 2333,200;34909,400;20,12052
1082,01; 9119,900; 2383,100;36084,400;19,98973
1086,48; 9268,400; 2367,300;37013,200;19,91895
1090,94; 9308,900; 2303,100;37697,100;19,79375
1095,39; 9634,300; 2435,000;38991,300;19,69373
1099,85; 9734,200; 2333,800;40179,000;19,55440
1104,29; 9871,700; 2343,900;41108,400;19,41931
1108,73; 9957,100; 2303,100;42037,300;19,26300
1113,17;10125,800; 2407,700;42761,500;19,12608
1117,61;10160,900; 2355,500;43454,900;18,99152
1122,03;10251,000; 2409,900;44116,600;18,80058
1126,46;10199,900; 2310,600;44683,800;18,61861
1130,88;10199,100; 2301,200;45196,100;18,41221
1135,29;10289,600; 2423,100;45857,400;18,11126
1139,70;10141,200; 2288,100;46461,700;17,77781
1144,11;10072,900; 2306,000;47061,800;17,35395
1148,51; 9968,200; 2313,600;47677,600;16,87373
1152,90; 9858,100; 2332,800;47946,200;16,49800
1157,29; 9784,100; 2292,900;48421,700;16,23975
1161,68; 9698,300; 2313,100;48619,300;15,94862
1166,06; 9539,900; 2309,600;48732,900;15,57472
1170,44; 9363,100; 2366,100;48547,000;15,15129
1174,81; 9011,400; 2318,600;47745,300;14,73319
1179,18; 8819,400; 2329,700;47463,900;14,37868
1183,54; 8585,700; 2345,800;47060,900;13,95479
1187,90; 8415,400; 2377,500;46950,700;13,54603
1192,25; 8203,000; 2344,700;46149,700;13,37359
1196,60; 8117,000; 2296,300;45763,400;13,39105
1200,94; 8150,200; 2354,600;45323,500;13,48789
1205,28; 8054,000; 2332,300;44562,200;13,54893
1209,62; 8013,000; 2337,500;44056,300;13,60418
1213,95; 8022,400; 2380,000;43765,500;13,63376
1218,27; 7940,300; 2311,400;43022,100;13,82659
1222,59; 7995,700; 2400,700;42056,700;14,10884
1226,91; 8005,600; 2335,900;41649,600;14,42169
1231,22; 7973,200; 2314,200;40767,800;14,71644
1235,52; 7897,300; 2271,300;39901,100;14,95092
1239,82; 7933,600; 2322,400;39388,100;15,13852
1244,12; 7831,400; 2318,100;38438,000;15,26389
1248,41; 7823,500; 2354,100;37852,300;15,40754
1252,70; 7625,400; 2253,500;37010,900;15,45541
1256,98; 7648,300; 2299,300;36667,700;15,56372
1261,26; 7640,000; 2367,800;36177,100;15,59393
1265,53; 7396,800; 2238,400;35319,900;15,59301
1269,80; 7394,900; 2285,700;34968,200;15,63283
1274,06; 7345,100; 2342,500;34372,200;15,61863
1278,32; 7225,800; 2321,300;33766,300;15,59707
1282,57; 7160,400; 2318,100;33423,400;15,56744
1286,82; 7045,600; 2307,600;32829,200;15,52343
1291,06; 6987,100; 2356,700;32275,900;15,47635
1295,30; 6902,200; 2338,100;31892,600;15,44300
1299,53; 6848,400; 2338,200;31647,500;15,38829
1303,76; 6731,000; 2323,600;31079,700;15,32684
1307,99; 6685,800; 2367,800;30595,000;15,29730
1312,20; 6577,100; 2359,900;30024,100;15,24425
1316,42; 6345,700; 2280,800;29032,600;15,19487
1320,63; 6260,200; 2300,900;28458,500;15,13633
1324,83; 6089,900; 2245,000;27777,100;15,05908
1329,03; 6038,400; 2317,800;27170,400;14,97067
1333,23; 5887,400; 2274,500;26672,500;14,80818
1337,42; 5834,000; 2337,300;26255,200;14,61959
1341,60; 5636,800; 2270,000;25620,600;14,41847
1345,78; 5560,200; 2322,700;25115,000;14,20436
1349,96; 5337,900; 2241,600;24490,500;13,91664
1354,13; 5180,300; 2280,700;23745,200;13,50882
1358,29; 4991,400; 2244,300;23082,400;13,18306
1362,46; 4900,800; 2319,600;22366,700;12,87568
1366,61; 4790,700; 2323,300;21817,100;12,65736
1370,76; 4619,400; 2261,900;21157,200;12,47665
1374,91; 4599,900; 2372,400;20568,000;12,24197
1379,05; 4396,300; 2274,100;19879,800;12,05405
1383,18; 4474,500; 2400,400;19767,200;11,94290
1387,32; 4305,600; 2240,200;19676,200;11,84561
1391,44; 4335,200; 2273,200;19905,300;11,69458
1395,56; 4484,900; 2416,900;20153,000;11,65984
1399,68; 4318,200; 2211,300;20249,800;11,68002
1403,79; 4422,100; 2272,300;20517,600;11,78276
1407,90; 4401,100; 2245,600;20456,300;11,83645
1412,00; 4434,600; 2271,700;20615,900;11,79065
1416,10; 4479,800; 2318,300;20574,800;11,83962
1420,19; 4426,900; 2266,200;20394,400;11,91900
1424,27; 4445,800; 2289,200;20322,000;11,95932
1428,36; 4450,100; 2300,300;20186,500;12,01932
1432,43; 4453,400; 2322,800;20034,000;12,02968
1436,50; 4373,400; 2262,400;19772,900;12,05562
1440,57; 4429,300; 2312,900;19797,100;12,10464
1444,63; 4378,700; 2279,300;19549,200;12,15641
1448,69; 4323,600; 2235,800;19361,400;12,19111
1452,74; 4357,300; 2272,400;19303,800;12,24151
1456,79; 4305,000; 2232,800;19131,100;12,26277
1460,83; 4319,800; 2263,600;18961,800;12,31390
1464,87; 4371,100; 2350,200;18781,300;12,29924
1468,90; 4343,400; 2310,200;18791,500;12,33641
1472,93; 4308,900; 2306,900;18491,800;12,36955
1476,95; 4300,300; 2315,800;18328,800;12,39306
1480,96; 4258,500; 2282,900;18145,100;12,45477
1484,98; 4257,400; 2291,100;18038,800;12,48627
1488,98; 4233,600; 2297,500;17808,200;12,48235
1492,98; 4223,500; 2311,900;17607,700;12,49755
1496,98; 4178,000; 2283,500;17361,700;12,56450
1500,97; 4195,000; 2313,000;17233,100;12,61386
1504,96; 4096,500; 2226,000;17033,400;12,63220
1508,94; 4173,400; 2304,800;17050,500;12,67217
1512,92; 4105,200; 2244,700;16883,900;12,70903
1516,89; 4107,300; 2245,000;16798,700;12,79606
1520,85; 4097,900; 2249,200;16740,000;12,75775
1524,81; 4170,600; 2344,200;16642,100;12,77390
1528,77; 4055,000; 2238,800;16473,000;12,75941
1532,72; 4056,100; 2252,300;16334,200;12,80935
1536,67; 4114,200; 2346,800;16198,700;12,75926
1540,61; 4008,200; 2261,900;15919,100;12,78666
1544,54; 4025,900; 2298,100;15815,100;12,78242
1548,47; 3929,000; 2230,000;15593,800;12,71345
1552,40; 3953,400; 2281,600;15410,700;12,73355
1556,32; 3927,000; 2276,600;15285,000;12,68719
1560,23; 3879,500; 2270,100;14999,600;12,64307
1564,15; 3874,800; 2284,800;14941,900;12,56212
1568,05; 3830,700; 2254,700;14763,000;12,59963
1571,95; 3833,100; 2299,800;14583,200;12,48270
1575,84; 3771,900; 2264,700;14396,200;12,42386
1579,73; 3760,200; 2278,600;14216,200;12,41120
1583,62; 3735,200; 2291,000;14037,500;12,29473
1587,50; 3656,200; 2227,300;13824,900;12,32065
1591,37; 3741,000; 2341,500;13765,300;12,25074
1595,24; 3666,000; 2290,900;13552,200;12,21085
1599,11; 3565,400; 2218,500;13299,400;12,15515
1602,96; 3556,400; 2233,800;13148,300;12,11782
1606,82; 3490,500; 2199,200;12931,900;12,03146
1610,67; 3527,200; 2259,900;12768,200;12,05999
1614,51; 3501,300; 2253,600;12662,100;11,98732
1618,35; 3410,600; 2200,500;12443,200;11,81427
1622,18; 3445,400; 2259,000;12320,000;11,79207
1626,01; 3418,600; 2261,500;12204,900;11,63686
1629,83; 3400,800; 2264,200;12060,300;11,60258
1633,65; 3407,600; 2285,600;11926,300;11,63816
1637,46; 3314,200; 2232,700;11710,000;11,41148
1641,27; 3308,500; 2240,500;11611,900;11,39638
1645,07; 3272,700; 2223,100;11460,600;11,36238
1648,86; 3272,200; 2252,200;11293,600;11,28144
1652,66; 3242,100; 2239,700;11231,400;11,14806
1656,44; 3217,400; 2248,900;11068,200;10,98160
1660,22; 3215,700; 2279,900;10946,100;10,79827
1664,00; 3203,100; 2293,300;10899,400;10,57157
1667,77; 3123,700; 2255,400;10706,100;10,27489
1671,53; 3095,100; 2267,200;10535,100;10,01343
1675,29; 3008,600; 2218,100;10422,700; 9,63484
1679,05; 3005,800; 2268,300;10347,700; 9,12815
1682,80; 2932,200; 2250,400;10217,700; 8,55748
1686,54; 2905,000; 2284,500;10131,800; 7,90718
1690,28; 2825,300; 2278,500;10016,500; 7,06643
1694,01; 2719,000; 2220,600; 9797,600; 6,57780
1697,74; 2708,500; 2222,200; 9685,200; 6,51615
1701,46; 2723,700; 2264,100; 9639,900; 6,23119
1705,18; 2677,400; 2239,900; 9483,800; 6,03956
1708,89; 2615,500; 2178,500; 9321,400; 6,11796
1712,60; 2703,800; 2263,700; 9310,100; 6,24574
1716,30; 2734,200; 2296,000; 9229,900; 6,31968
1720,00; 2702,400; 2272,600; 9164,500; 6,23631
1723,69; 2700,300; 2274,100; 9040,800; 6,29849
1727,38; 2623,700; 2189,500; 8867,100; 6,50234
1731,06; 2692,800; 2257,500; 8834,400; 6,61862
1734,73; 2663,400; 2236,800; 8714,100; 6,58608
1738,40; 2653,500; 2214,400; 8628,400; 6,84596
1742,07; 2735,700; 2286,100; 8625,700; 7,09193
1745,73; 2708,000; 2245,800; 8533,600; 7,35074
1749,38; 2740,100; 2278,500; 8445,700; 7,48476

