kl505-2
Integration time [ms]:  15,000
Averaging Nr. [scans]: 10
Smoothing Nr. [pixels]: 0
Data measured with spectrometer [name]: 1204091U1
Wave   ;Sample   ;Dark     ;Reference;Reflectance
[nm]   ;[counts] ;[counts] ;[counts] ;[%]

1014,48; 6204,900; 2348,500;19637,500;22,30551
1019,01; 6447,400; 2352,700;20829,700;22,16107
1023,54; 6707,500; 2377,000;21962,200;22,11108
1028,07; 6903,500; 2352,700;23028,700;22,01006
1032,59; 7139,500; 2345,300;24165,800;21,97108
1037,10; 7430,900; 2317,300;25614,800;21,94914
1041,62; 7695,900; 2350,000;26799,400;21,86516
1046,12; 8029,800; 2427,500;28080,800;21,83852
1050,62; 8143,600; 2344,700;28925,600;21,81604
1055,12; 8288,700; 2300,600;29808,600;21,76858
1059,62; 8487,900; 2304,000;30750,500;21,73870
1064,10; 8789,200; 2352,400;31934,300;21,75925
1068,59; 9016,900; 2395,400;32879,900;21,72087
1073,07; 9213,200; 2329,700;33988,100;21,74304
1077,54; 9412,000; 2333,200;34909,400;21,72997
1082,01; 9683,400; 2383,100;36084,400;21,66178
1086,48; 9860,800; 2367,300;37013,200;21,62882
1090,94; 9928,000; 2303,100;37697,100;21,54292
1095,39;10279,300; 2435,000;38991,300;21,45813
1099,85;10412,400; 2333,800;40179,000;21,34643
1104,29;10584,100; 2343,900;41108,400;21,25708
1108,73;10701,700; 2303,100;42037,300;21,13696
1113,17;10903,800; 2407,700;42761,500;21,05403
1117,61;10988,400; 2355,500;43454,900;21,00493
1122,03;11152,700; 2409,900;44116,600;20,96258
1126,46;11195,200; 2310,600;44683,800;20,96750
1130,88;11297,700; 2301,200;45196,100;20,97336
1135,29;11508,400; 2423,100;45857,400;20,91734
1139,70;11486,000; 2288,100;46461,700;20,82217
1144,11;11529,300; 2306,000;47061,800;20,60806
1148,51;11528,500; 2313,600;47677,600;20,31324
1152,90;11501,600; 2332,800;47946,200;20,10111
1157,29;11507,900; 2292,900;48421,700;19,97667
1161,68;11475,800; 2313,100;48619,300;19,78720
1166,06;11345,800; 2309,600;48732,900;19,46479
1170,44;11172,700; 2366,100;48547,000;19,06979
1174,81;10797,400; 2318,600;47745,300;18,66479
1179,18;10600,100; 2329,700;47463,900;18,32402
1183,54;10328,000; 2345,800;47060,900;17,85124
1187,90;10125,000; 2377,500;46950,700;17,38152
1192,25; 9893,900; 2344,700;46149,700;17,23365
1196,60; 9859,600; 2296,300;45763,400;17,40006
1200,94; 9933,300; 2354,600;45323,500;17,63764
1205,28; 9873,400; 2332,300;44562,200;17,85725
1209,62; 9870,200; 2337,500;44056,300;18,05589
1213,95; 9957,700; 2380,000;43765,500;18,31004
1218,27; 9986,200; 2311,400;43022,100;18,85205
1222,59;10153,200; 2400,700;42056,700;19,54937
1226,91;10314,300; 2335,900;41649,600;20,29420
1231,22;10385,100; 2314,200;40767,800;20,98867
1235,52;10400,200; 2271,300;39901,100;21,60229
1239,82;10502,800; 2322,400;39388,100;22,07000
1244,12;10439,500; 2318,100;38438,000;22,48456
1248,41;10476,200; 2354,100;37852,300;22,88032
1252,70;10312,200; 2253,500;37010,900;23,18557
1256,98;10370,300; 2299,300;36667,700;23,48378
1261,26;10403,000; 2367,800;36177,100;23,76624
1265,53;10172,000; 2238,400;35319,900;23,98198
1269,80;10209,600; 2285,700;34968,200;24,24509
1274,06;10172,900; 2342,500;34372,200;24,44731
1278,32;10075,100; 2321,300;33766,300;24,65829
1282,57;10039,600; 2318,100;33423,400;24,82374
1286,82; 9942,800; 2307,600;32829,200;25,01573
1291,06; 9889,800; 2356,700;32275,900;25,17815
1295,30; 9835,700; 2338,100;31892,600;25,36873
1299,53; 9824,100; 2338,200;31647,500;25,54104
1303,76; 9707,000; 2323,600;31079,700;25,67594
1307,99; 9670,800; 2367,800;30595,000;25,87221
1312,20; 9563,200; 2359,900;30024,100;26,03835
1316,42; 9281,800; 2280,800;29032,600;26,17020
1320,63; 9191,600; 2300,900;28458,500;26,34301
1324,83; 9008,900; 2245,000;27777,100;26,49175
1329,03; 8929,200; 2317,800;27170,400;26,60245
1333,23; 8769,300; 2274,500;26672,500;26,62021
1337,42; 8698,000; 2337,300;26255,200;26,59389
1341,60; 8461,800; 2270,000;25620,600;26,51666
1345,78; 8335,600; 2322,700;25115,000;26,38128
1349,96; 8061,200; 2241,600;24490,500;26,15680
1354,13; 7821,200; 2280,700;23745,200;25,81239
1358,29; 7524,200; 2244,300;23082,400;25,33772
1362,46; 7322,900; 2319,600;22366,700;24,95772
1366,61; 7137,300; 2323,300;21817,100;24,69503
1370,76; 6884,700; 2261,900;21157,200;24,46534
1374,91; 6776,600; 2372,400;20568,000;24,20475
1379,05; 6508,900; 2274,100;19879,800;24,05357
1383,18; 6561,300; 2400,400;19767,200;23,95893
1387,32; 6421,700; 2240,200;19676,200;23,98199
1391,44; 6490,700; 2273,200;19905,300;23,91944
1395,56; 6685,600; 2416,900;20153,000;24,06786
1399,68; 6638,900; 2211,300;20249,800;24,54528
1403,79; 6852,900; 2272,300;20517,600;25,10564
1407,90; 6885,600; 2245,600;20456,300;25,47953
1412,00; 6972,400; 2271,700;20615,900;25,62499
1416,10; 7064,100; 2318,300;20574,800;25,99513
1420,19; 7063,000; 2266,200;20394,400;26,46043
1424,27; 7128,700; 2289,200;20322,000;26,83721
1428,36; 7157,500; 2300,300;20186,500;27,15613
1432,43; 7196,600; 2322,800;20034,000;27,51818
1436,50; 7150,500; 2262,400;19772,900;27,91525
1440,57; 7259,400; 2312,900;19797,100;28,29126
1444,63; 7234,000; 2279,300;19549,200;28,68980
1448,69; 7216,600; 2235,800;19361,400;29,08394
1452,74; 7295,300; 2272,400;19303,800;29,49200
1456,79; 7280,700; 2232,800;19131,100;29,87224
1460,83; 7309,900; 2263,600;18961,800;30,22062
1464,87; 7370,300; 2350,200;18781,300;30,55243
1468,90; 7399,000; 2310,200;18791,500;30,87621
1472,93; 7371,400; 2306,900;18491,800;31,29151
1476,95; 7380,900; 2315,800;18328,800;31,63117
1480,96; 7349,600; 2282,900;18145,100;31,94198
1484,98; 7378,300; 2291,100;18038,800;32,30440
1488,98; 7364,400; 2297,500;17808,200;32,66713
1492,98; 7362,400; 2311,900;17607,700;33,01887
1496,98; 7324,800; 2283,500;17361,700;33,43436
1500,97; 7362,100; 2313,000;17233,100;33,84093
1504,96; 7291,800; 2226,000;17033,400;34,21127
1508,94; 7409,400; 2304,800;17050,500;34,61755
1512,92; 7353,900; 2244,700;16883,900;34,90081
1516,89; 7380,000; 2245,000;16798,700;35,28312
1520,85; 7400,800; 2249,200;16740,000;35,55083
1524,81; 7469,400; 2344,200;16642,100;35,84582
1528,77; 7377,100; 2238,800;16473,000;36,09827
1532,72; 7386,200; 2252,300;16334,200;36,45744
1536,67; 7424,700; 2346,800;16198,700;36,65851
1540,61; 7296,900; 2261,900;15919,100;36,86700
1544,54; 7328,500; 2298,100;15815,100;37,21536
1548,47; 7223,700; 2230,000;15593,800;37,36737
1552,40; 7217,400; 2281,600;15410,700;37,59435
1556,32; 7189,100; 2276,600;15285,000;37,76406
1560,23; 7103,500; 2270,100;14999,600;37,97007
1564,15; 7115,800; 2284,800;14941,900;38,16830
1568,05; 7057,200; 2254,700;14763,000;38,39451
1571,95; 7033,900; 2299,800;14583,200;38,54063
1575,84; 6955,300; 2264,700;14396,200;38,66463
1579,73; 6916,600; 2278,600;14216,200;38,85203
1583,62; 6869,700; 2291,000;14037,500;38,97927
1587,50; 6773,900; 2227,300;13824,900;39,20294
1591,37; 6837,600; 2341,500;13765,300;39,35731
1595,24; 6737,200; 2290,900;13552,200;39,48301
1599,11; 6616,600; 2218,500;13299,400;39,69082
1602,96; 6574,800; 2233,800;13148,300;39,77278
1606,82; 6476,000; 2199,200;12931,900;39,84831
1610,67; 6455,100; 2259,900;12768,200;39,92273
1614,51; 6415,500; 2253,600;12662,100;39,98559
1618,35; 6293,200; 2200,500;12443,200;39,95724
1622,18; 6282,900; 2259,000;12320,000;39,99503
1626,01; 6236,400; 2261,500;12204,900;39,97526
1629,83; 6171,500; 2264,200;12060,300;39,88628
1633,65; 6142,400; 2285,600;11926,300;40,00539
1637,46; 6032,900; 2232,700;11710,000;40,09792
1641,27; 6000,200; 2240,500;11611,900;40,11887
1645,07; 5934,600; 2223,100;11460,600;40,17862
1648,86; 5879,000; 2252,200;11293,600;40,11326
1652,66; 5818,900; 2239,700;11231,400;39,80560
1656,44; 5717,600; 2248,900;11068,200;39,33079
1660,22; 5628,100; 2279,900;10946,100;38,63516
1664,00; 5547,200; 2293,300;10899,400;37,80923
1667,77; 5347,600; 2255,400;10706,100;36,59105
1671,53; 5173,000; 2267,200;10535,100;35,14556
1675,29; 4969,800; 2218,100;10422,700;33,53850
1679,05; 4810,100; 2268,300;10347,700;31,46026
1682,80; 4540,900; 2250,400;10217,700;28,74876
1686,54; 4252,200; 2284,500;10131,800;25,07487
1690,28; 3884,800; 2278,500;10016,500;20,75859
1694,01; 3614,700; 2220,600; 9797,600;18,39910
1697,74; 3524,100; 2222,200; 9685,200;17,44473
1701,46; 3452,400; 2264,100; 9639,900;16,11079
1705,18; 3313,600; 2239,900; 9483,800;14,82213
1708,89; 3243,100; 2178,500; 9321,400;14,90431
1712,60; 3354,900; 2263,700; 9310,100;15,48592
1716,30; 3389,500; 2296,000; 9229,900;15,77035
1720,00; 3338,500; 2272,600; 9164,500;15,46598
1723,69; 3304,500; 2274,100; 9040,800;15,22751
1727,38; 3244,200; 2189,500; 8867,100;15,79460
1731,06; 3365,300; 2257,500; 8834,400;16,84380
1734,73; 3374,500; 2236,800; 8714,100;17,56442
1738,40; 3426,600; 2214,400; 8628,400;18,89928
1742,07; 3604,900; 2286,100; 8625,700;20,80257
1745,73; 3660,300; 2245,800; 8533,600;22,49594
1749,38; 3717,600; 2278,500; 8445,700;23,33474

