kl601
Integration time [ms]:  15,000
Averaging Nr. [scans]: 10
Smoothing Nr. [pixels]: 0
Data measured with spectrometer [name]: 1204091U1
Wave   ;Sample   ;Dark     ;Reference;Reflectance
[nm]   ;[counts] ;[counts] ;[counts] ;[%]

1014,48;15891,700; 2348,500;19637,500;78,33420
1019,01;16752,900; 2352,700;20829,700;77,93581
1023,54;17572,200; 2377,000;21962,200;77,58512
1028,07;18331,500; 2352,700;23028,700;77,28187
1032,59;19144,400; 2345,300;24165,800;76,98770
1037,10;20199,400; 2317,300;25614,800;76,75545
1041,62;21025,600; 2350,000;26799,400;76,38470
1046,12;21940,500; 2427,500;28080,800;76,06429
1050,62;22489,800; 2344,700;28925,600;75,78788
1055,12;23067,000; 2300,600;29808,600;75,49222
1059,62;23712,100; 2304,000;30750,500;75,25741
1064,10;24554,000; 2352,400;31934,300;75,05130
1068,59;25206,200; 2395,400;32879,900;74,82754
1073,07;25967,400; 2329,700;33988,100;74,66486
1077,54;26569,400; 2333,200;34909,400;74,39849
1082,01;27345,300; 2383,100;36084,400;74,06895
1086,48;27910,400; 2367,300;37013,200;73,72618
1090,94;28272,500; 2303,100;37697,100;73,37232
1095,39;29097,800; 2435,000;38991,300;72,93627
1099,85;29766,600; 2333,800;40179,000;72,48687
1104,29;30237,000; 2343,900;41108,400;71,95527
1108,73;30659,100; 2303,100;42037,300;71,36422
1113,17;30905,300; 2407,700;42761,500;70,61937
1117,61;31001,500; 2355,500;43454,900;69,69931
1122,03;30997,100; 2409,900;44116,600;68,54342
1126,46;30785,400; 2310,600;44683,800;67,20002
1130,88;30436,100; 2301,200;45196,100;65,59031
1135,29;30127,400; 2423,100;45857,400;63,78438
1139,70;29785,100; 2288,100;46461,700;62,24759
1144,11;29897,500; 2306,000;47061,800;61,64899
1148,51;30610,600; 2313,600;47677,600;62,37766
1152,90;31465,600; 2332,800;47946,200;63,86895
1157,29;32416,800; 2292,900;48421,700;65,30389
1161,68;32924,600; 2313,100;48619,300;66,10670
1166,06;33101,200; 2309,600;48732,900;66,32790
1170,44;32984,700; 2366,100;48547,000;66,30144
1174,81;32349,000; 2318,600;47745,300;66,10738
1179,18;32060,500; 2329,700;47463,900;65,87200
1183,54;31617,800; 2345,800;47060,900;65,46334
1187,90;31325,700; 2377,500;46950,700;64,94530
1192,25;30583,100; 2344,700;46149,700;64,46387
1196,60;30133,000; 2296,300;45763,400;64,04085
1200,94;29711,100; 2354,600;45323,500;63,66581
1205,28;29107,700; 2332,300;44562,200;63,40389
1209,62;28780,700; 2337,500;44056,300;63,38437
1213,95;28670,700; 2380,000;43765,500;63,52636
1218,27;28299,400; 2311,400;43022,100;63,83580
1222,59;27838,700; 2400,700;42056,700;64,14666
1226,91;27649,200; 2335,900;41649,600;64,38799
1231,22;27143,300; 2314,200;40767,800;64,56899
1235,52;26597,900; 2271,300;39901,100;64,64717
1239,82;26271,400; 2322,400;39388,100;64,61230
1244,12;25652,600; 2318,100;38438,000;64,60289
1248,41;25277,100; 2354,100;37852,300;64,57511
1252,70;24671,500; 2253,500;37010,900;64,49850
1256,98;24448,600; 2299,300;36667,700;64,44670
1261,26;24121,400; 2367,800;36177,100;64,34206
1265,53;23474,500; 2238,400;35319,900;64,19328
1269,80;23232,200; 2285,700;34968,200;64,09087
1274,06;22832,900; 2342,500;34372,200;63,97312
1278,32;22388,100; 2321,300;33766,300;63,81555
1282,57;22115,900; 2318,100;33423,400;63,64767
1286,82;21674,000; 2307,600;32829,200;63,45146
1291,06;21276,400; 2356,700;32275,900;63,23598
1295,30;20975,400; 2338,100;31892,600;63,06079
1299,53;20757,800; 2338,200;31647,500;62,84558
1303,76;20344,700; 2323,600;31079,700;62,66879
1307,99;20015,400; 2367,800;30595,000;62,51984
1312,20;19603,700; 2359,900;30024,100;62,33255
1316,42;18898,200; 2280,800;29032,600;62,11694
1320,63;18508,900; 2300,900;28458,500;61,96287
1324,83;18020,700; 2245,000;27777,100;61,78771
1329,03;17632,400; 2317,800;27170,400;61,62172
1333,23;17261,000; 2274,500;26672,500;61,42512
1337,42;16994,100; 2337,300;26255,200;61,27963
1341,60;16532,000; 2270,000;25620,600;61,07766
1345,78;16193,900; 2322,700;25115,000;60,85915
1349,96;15740,400; 2241,600;24490,500;60,67176
1354,13;15273,500; 2280,700;23745,200;60,53158
1358,29;14830,800; 2244,300;23082,400;60,40138
1362,46;14384,800; 2319,600;22366,700;60,18427
1366,61;13980,900; 2323,300;21817,100;59,80158
1370,76;13505,200; 2261,900;21157,200;59,50316
1374,91;13125,700; 2372,400;20568,000;59,09835
1379,05;12622,700; 2274,100;19879,800;58,77983
1383,18;12559,100; 2400,400;19767,200;58,49494
1387,32;12390,300; 2240,200;19676,200;58,21347
1391,44;12476,400; 2273,200;19905,300;57,86719
1395,56;12648,500; 2416,900;20153,000;57,68799
1399,68;12588,400; 2211,300;20249,800;57,52751
1403,79;12733,300; 2272,300;20517,600;57,33531
1407,90;12664,500; 2245,600;20456,300;57,21307
1412,00;12743,500; 2271,700;20615,900;57,08507
1416,10;12744,000; 2318,300;20574,800;57,10678
1420,19;12633,800; 2266,200;20394,400;57,19045
1424,27;12611,300; 2289,200;20322,000;57,24069
1428,36;12544,200; 2300,300;20186,500;57,27265
1432,43;12464,600; 2322,800;20034,000;57,26207
1436,50;12296,700; 2262,400;19772,900;57,30447
1440,57;12323,700; 2312,900;19797,100;57,25627
1444,63;12180,300; 2279,300;19549,200;57,33096
1448,69;12072,900; 2235,800;19361,400;57,44091
1452,74;12058,000; 2272,400;19303,800;57,45623
1456,79;11941,800; 2232,800;19131,100;57,45548
1460,83;11863,600; 2263,600;18961,800;57,49123
1464,87;11799,100; 2350,200;18781,300;57,50619
1468,90;11789,800; 2310,200;18791,500;57,51731
1472,93;11624,500; 2306,900;18491,800;57,56971
1476,95;11538,400; 2315,800;18328,800;57,59445
1480,96;11422,500; 2282,900;18145,100;57,61874
1484,98;11372,400; 2291,100;18038,800;57,66747
1488,98;11248,300; 2297,500;17808,200;57,70726
1492,98;11140,500; 2311,900;17607,700;57,71911
1496,98;10986,000; 2283,500;17361,700;57,71578
1500,97;10932,900; 2313,000;17233,100;57,77374
1504,96;10779,900; 2226,000;17033,400;57,76774
1508,94;10826,700; 2304,800;17050,500;57,79244
1512,92;10701,400; 2244,700;16883,900;57,76750
1516,89;10655,600; 2245,000;16798,700;57,79012
1520,85;10621,800; 2249,200;16740,000;57,77873
1524,81;10600,000; 2344,200;16642,100;57,74135
1528,77;10456,900; 2238,800;16473,000;57,73489
1532,72;10388,900; 2252,300;16334,200;57,78056
1536,67;10349,000; 2346,800;16198,700;57,76969
1540,61;10150,900; 2261,900;15919,100;57,76440
1544,54;10107,100; 2298,100;15815,100;57,77169
1548,47; 9947,100; 2230,000;15593,800;57,74630
1552,40; 9860,900; 2281,600;15410,700;57,72901
1556,32; 9777,600; 2276,600;15285,000;57,66274
1560,23; 9608,700; 2270,100;14999,600;57,65034
1564,15; 9570,500; 2284,800;14941,900;57,56216
1568,05; 9448,900; 2254,700;14763,000;57,51541
1571,95; 9346,900; 2299,800;14583,200;57,37092
1575,84; 9208,100; 2264,700;14396,200;57,23447
1579,73; 9105,400; 2278,600;14216,200;57,18737
1583,62; 8981,400; 2291,000;14037,500;56,95654
1587,50; 8820,200; 2227,300;13824,900;56,84711
1591,37; 8811,600; 2341,500;13765,300;56,63702
1595,24; 8642,500; 2290,900;13552,200;56,40201
1599,11; 8440,300; 2218,500;13299,400;56,14887
1602,96; 8314,300; 2233,800;13148,300;55,71029
1606,82; 8120,100; 2199,200;12931,900;55,16692
1610,67; 7993,600; 2259,900;12768,200;54,56354
1614,51; 7871,500; 2253,600;12662,100;53,97416
1618,35; 7648,100; 2200,500;12443,200;53,18520
1622,18; 7510,800; 2259,000;12320,000;52,19958
1626,01; 7334,000; 2261,500;12204,900;51,01374
1629,83; 7146,000; 2264,200;12060,300;49,83412
1633,65; 6975,700; 2285,600;11926,300;48,64896
1637,46; 6750,000; 2232,700;11710,000;47,66442
1641,27; 6628,300; 2240,500;11611,900;46,82118
1645,07; 6467,600; 2223,100;11460,600;45,94858
1648,86; 6344,800; 2252,200;11293,600;45,26511
1652,66; 6228,900; 2239,700;11231,400;44,36536
1656,44; 6002,600; 2248,900;11068,200;42,56233
1660,22; 5748,200; 2279,900;10946,100;40,02100
1664,00; 5513,100; 2293,300;10899,400;37,41300
1667,77; 5222,900; 2255,400;10706,100;35,11543
1671,53; 5033,100; 2267,200;10535,100;33,45348
1675,29; 4894,400; 2218,100;10422,700;32,61951
1679,05; 4919,900; 2268,300;10347,700;32,81927
1682,80; 4938,500; 2250,400;10217,700;33,73916
1686,54; 5040,900; 2284,500;10131,800;35,12546
1690,28; 5095,400; 2278,500;10016,500;36,40346
1694,01; 5091,300; 2220,600; 9797,600;37,88703
1697,74; 5184,200; 2222,200; 9685,200;39,68913
1701,46; 5333,200; 2264,100; 9639,900;41,61040
1705,18; 5365,800; 2239,900; 9483,800;43,15217
1708,89; 5316,700; 2178,500; 9321,400;43,93454
1712,60; 5396,900; 2263,700; 9310,100;44,46526
1716,30; 5413,700; 2296,000; 9229,900;44,96315
1720,00; 5401,800; 2272,600; 9164,500;45,40403
1723,69; 5365,500; 2274,100; 9040,800;45,68549
1727,38; 5282,900; 2189,500; 8867,100;46,32503
1731,06; 5356,000; 2257,500; 8834,400;47,11186
1734,73; 5341,600; 2236,800; 8714,100;47,93355
1738,40; 5337,800; 2214,400; 8628,400;48,69660
1742,07; 5394,000; 2286,100; 8625,700;49,02360
1745,73; 5313,600; 2245,800; 8533,600;48,78972
1749,38; 5262,700; 2278,500; 8445,700;48,38825

