kl602
Integration time [ms]:  15,000
Averaging Nr. [scans]: 10
Smoothing Nr. [pixels]: 0
Data measured with spectrometer [name]: 1204091U1
Wave   ;Sample   ;Dark     ;Reference;Reflectance
[nm]   ;[counts] ;[counts] ;[counts] ;[%]

1014,48;15249,900; 2348,500;19637,500;74,62201
1019,01;16066,300; 2352,700;20829,700;74,21984
1023,54;16838,100; 2377,000;21962,200;73,83688
1028,07;17555,000; 2352,700;23028,700;73,52631
1032,59;18326,100; 2345,300;24165,800;73,23755
1037,10;19313,200; 2317,300;25614,800;72,95160
1041,62;20103,400; 2350,000;26799,400;72,61282
1046,12;20967,600; 2427,500;28080,800;72,27179
1050,62;21479,500; 2344,700;28925,600;71,98703
1055,12;22026,700; 2300,600;29808,600;71,71041
1059,62;22625,000; 2304,000;30750,500;71,43585
1064,10;23423,200; 2352,400;31934,300;71,22869
1068,59;24038,700; 2395,400;32879,900;70,99772
1073,07;24751,100; 2329,700;33988,100;70,82291
1077,54;25314,400; 2333,200;34909,400;70,54598
1082,01;26038,800; 2383,100;36084,400;70,19225
1086,48;26572,800; 2367,300;37013,200;69,86541
1090,94;26888,300; 2303,100;37697,100;69,46149
1095,39;27669,700; 2435,000;38991,300;69,02969
1099,85;28282,200; 2333,800;40179,000;68,56457
1104,29;28715,800; 2343,900;41108,400;68,03106
1108,73;29070,700; 2303,100;42037,300;67,36665
1113,17;29279,600; 2407,700;42761,500;66,59075
1117,61;29329,100; 2355,500;43454,900;65,63016
1122,03;29271,500; 2409,900;44116,600;64,40596
1126,46;28994,900; 2310,600;44683,800;62,97447
1130,88;28585,400; 2301,200;45196,100;61,27582
1135,29;28205,700; 2423,100;45857,400;59,36000
1139,70;27801,200; 2288,100;46461,700;57,75644
1144,11;27895,900; 2306,000;47061,800;57,17672
1148,51;28596,100; 2313,600;47677,600;57,93691
1152,90;29470,100; 2332,800;47946,200;59,49414
1157,29;30438,000; 2292,900;48421,700;61,01416
1161,68;30956,700; 2313,100;48619,300;61,85694
1166,06;31148,600; 2309,600;48732,900;62,12182
1170,44;31054,100; 2366,100;48547,000;62,12092
1174,81;30450,800; 2318,600;47745,300;61,92878
1179,18;30163,500; 2329,700;47463,900;61,66898
1183,54;29734,700; 2345,800;47060,900;61,25202
1187,90;29422,900; 2377,500;46950,700;60,67637
1192,25;28699,500; 2344,700;46149,700;60,16391
1196,60;28252,400; 2296,300;45763,400;59,71436
1200,94;27853,300; 2354,600;45323,500;59,34222
1205,28;27274,600; 2332,300;44562,200;59,06313
1209,62;26977,800; 2337,500;44056,300;59,06282
1213,95;26885,300; 2380,000;43765,500;59,21228
1218,27;26562,400; 2311,400;43022,100;59,56911
1222,59;26167,900; 2400,700;42056,700;59,93343
1226,91;26012,500; 2335,900;41649,600;60,22481
1231,22;25556,400; 2314,200;40767,800;60,44220
1235,52;25055,100; 2271,300;39901,100;60,54723
1239,82;24757,100; 2322,400;39388,100;60,52685
1244,12;24171,200; 2318,100;38438,000;60,50155
1248,41;23831,900; 2354,100;37852,300;60,50391
1252,70;23258,300; 2253,500;37010,900;60,43260
1256,98;23048,800; 2299,300;36667,700;60,37377
1261,26;22755,100; 2367,800;36177,100;60,30086
1265,53;22142,100; 2238,400;35319,900;60,16565
1269,80;21921,500; 2285,700;34968,200;60,08047
1274,06;21543,700; 2342,500;34372,200;59,94811
1278,32;21108,800; 2321,300;33766,300;59,74718
1282,57;20856,300; 2318,100;33423,400;59,59820
1286,82;20440,000; 2307,600;32829,200;59,40842
1291,06;20065,100; 2356,700;32275,900;59,18741
1295,30;19766,400; 2338,100;31892,600;58,97004
1299,53;19562,700; 2338,200;31647,500;58,76804
1303,76;19162,200; 2323,600;31079,700;58,55662
1307,99;18854,800; 2367,800;30595,000;58,40820
1312,20;18471,600; 2359,900;30024,100;58,24025
1316,42;17814,500; 2280,800;29032,600;58,06600
1320,63;17433,600; 2300,900;28458,500;57,85202
1324,83;16971,000; 2245,000;27777,100;57,67642
1329,03;16606,400; 2317,800;27170,400;57,49338
1333,23;16259,000; 2274,500;26672,500;57,31822
1337,42;16005,800; 2337,300;26255,200;57,14758
1341,60;15559,800; 2270,000;25620,600;56,91417
1345,78;15241,800; 2322,700;25115,000;56,68186
1349,96;14816,800; 2241,600;24490,500;56,52055
1354,13;14373,200; 2280,700;23745,200;56,33721
1358,29;13949,600; 2244,300;23082,400;56,17259
1362,46;13524,100; 2319,600;22366,700;55,89088
1366,61;13142,800; 2323,300;21817,100;55,50226
1370,76;12681,500; 2261,900;21157,200;55,14387
1374,91;12325,000; 2372,400;20568,000;54,69784
1379,05;11844,700; 2274,100;19879,800;54,36080
1383,18;11795,100; 2400,400;19767,200;54,09575
1387,32;11619,300; 2240,200;19676,200;53,79158
1391,44;11695,300; 2273,200;19905,300;53,43720
1395,56;11857,100; 2416,900;20153,000;53,22591
1399,68;11786,200; 2211,300;20249,800;53,08036
1403,79;11925,100; 2272,300;20517,600;52,90568
1407,90;11853,900; 2245,600;20456,300;52,76184
1412,00;11926,800; 2271,700;20615,900;52,63298
1416,10;11919,600; 2318,300;20574,800;52,59113
1420,19;11817,500; 2266,200;20394,400;52,68753
1424,27;11801,800; 2289,200;20322,000;52,75165
1428,36;11742,800; 2300,300;20186,500;52,79210
1432,43;11674,400; 2322,800;20034,000;52,80049
1436,50;11509,600; 2262,400;19772,900;52,80946
1440,57;11546,600; 2312,900;19797,100;52,81168
1444,63;11409,000; 2279,300;19549,200;52,86481
1448,69;11307,600; 2235,800;19361,400;52,97216
1452,74;11302,100; 2272,400;19303,800;53,01796
1456,79;11194,800; 2232,800;19131,100;53,03492
1460,83;11123,300; 2263,600;18961,800;53,05781
1464,87;11060,300; 2350,200;18781,300;53,00984
1468,90;11051,500; 2310,200;18791,500;53,03769
1472,93;10896,600; 2306,900;18491,800;53,07231
1476,95;10827,100; 2315,800;18328,800;53,15244
1480,96;10720,000; 2282,900;18145,100;53,18997
1484,98;10666,000; 2291,100;18038,800;53,18173
1488,98;10543,300; 2297,500;17808,200;53,16201
1492,98;10453,800; 2311,900;17607,700;53,22964
1496,98;10320,600; 2283,500;17361,700;53,30278
1500,97;10275,400; 2313,000;17233,100;53,36693
1504,96;10132,700; 2226,000;17033,400;53,39695
1508,94;10180,400; 2304,800;17050,500;53,40947
1512,92;10046,800; 2244,700;16883,900;53,29595
1516,89; 9998,400; 2245,000;16798,700;53,27443
1520,85; 9963,700; 2249,200;16740,000;53,23723
1524,81; 9954,400; 2344,200;16642,100;53,22600
1528,77; 9820,800; 2238,800;16473,000;53,26608
1532,72; 9761,400; 2252,300;16334,200;53,32448
1536,67; 9727,400; 2346,800;16198,700;53,28222
1540,61; 9531,100; 2261,900;15919,100;53,22614
1544,54; 9486,800; 2298,100;15815,100;53,18266
1548,47; 9336,900; 2230,000;15593,800;53,18023
1552,40; 9259,400; 2281,600;15410,700;53,14759
1556,32; 9188,100; 2276,600;15285,000;53,13105
1560,23; 9029,500; 2270,100;14999,600;53,10028
1564,15; 8995,600; 2284,800;14941,900;53,02004
1568,05; 8875,700; 2254,700;14763,000;52,93285
1571,95; 8769,200; 2299,800;14583,200;52,66783
1575,84; 8642,000; 2264,700;14396,200;52,56811
1579,73; 8544,400; 2278,600;14216,200;52,48794
1583,62; 8437,600; 2291,000;14037,500;52,32708
1587,50; 8280,500; 2227,300;13824,900;52,19356
1591,37; 8286,100; 2341,500;13765,300;52,03698
1595,24; 8115,400; 2290,900;13552,200;51,72138
1599,11; 7906,400; 2218,500;13299,400;51,33067
1602,96; 7782,900; 2233,800;13148,300;50,84154
1606,82; 7598,300; 2199,200;12931,900;50,30514
1610,67; 7493,400; 2259,900;12768,200;49,80349
1614,51; 7364,200; 2253,600;12662,100;49,10025
1618,35; 7139,700; 2200,500;12443,200;48,22166
1622,18; 7007,200; 2259,000;12320,000;47,19412
1626,01; 6825,300; 2261,500;12204,900;45,89778
1629,83; 6637,000; 2264,200;12060,300;44,63817
1633,65; 6468,700; 2285,600;11926,300;43,39000
1637,46; 6247,500; 2232,700;11710,000;42,36228
1641,27; 6140,100; 2240,500;11611,900;41,61171
1645,07; 5978,600; 2223,100;11460,600;40,65494
1648,86; 5866,400; 2252,200;11293,600;39,97390
1652,66; 5760,400; 2239,700;11231,400;39,15500
1656,44; 5539,100; 2248,900;11068,200;37,30682
1660,22; 5286,200; 2279,900;10946,100;34,68994
1664,00; 5053,500; 2293,300;10899,400;32,07260
1667,77; 4779,600; 2255,400;10706,100;29,86971
1671,53; 4604,700; 2267,200;10535,100;28,27199
1675,29; 4469,300; 2218,100;10422,700;27,43827
1679,05; 4512,800; 2268,300;10347,700;27,78053
1682,80; 4525,500; 2250,400;10217,700;28,55547
1686,54; 4629,200; 2284,500;10131,800;29,87907
1690,28; 4686,100; 2278,500;10016,500;31,11398
1694,01; 4685,400; 2220,600; 9797,600;32,53003
1697,74; 4774,500; 2222,200; 9685,200;34,19938
1701,46; 4920,200; 2264,100; 9639,900;36,01101
1705,18; 4953,600; 2239,900; 9483,800;37,46186
1708,89; 4915,700; 2178,500; 9321,400;38,32057
1712,60; 5008,900; 2263,700; 9310,100;38,95890
1716,30; 5029,700; 2296,000; 9229,900;39,42514
1720,00; 5015,400; 2272,600; 9164,500;39,79744
1723,69; 4991,300; 2274,100; 9040,800;40,15547
1727,38; 4912,500; 2189,500; 8867,100;40,77812
1731,06; 4987,500; 2257,500; 8834,400;41,50892
1734,73; 4978,700; 2236,800; 8714,100;42,33091
1738,40; 4972,100; 2214,400; 8628,400;42,99501
1742,07; 5029,800; 2286,100; 8625,700;43,27876
1745,73; 4959,300; 2245,800; 8533,600;43,15500
1749,38; 4922,500; 2278,500; 8445,700;42,87197

