kl903
Integration time [ms]:  15,000
Averaging Nr. [scans]: 10
Smoothing Nr. [pixels]: 0
Data measured with spectrometer [name]: 1204091U1
Wave   ;Sample   ;Dark     ;Reference;Reflectance
[nm]   ;[counts] ;[counts] ;[counts] ;[%]

1014,48; 9734,900; 2348,500;19637,500;42,72312
1019,01;10170,600; 2352,700;20829,700;42,31152
1023,54;10597,600; 2377,000;21962,200;41,97353
1028,07;10948,900; 2352,700;23028,700;41,57574
1032,59;11360,500; 2345,300;24165,800;41,31528
1037,10;11877,400; 2317,300;25614,800;41,03487
1041,62;12283,000; 2350,000;26799,400;40,62676
1046,12;12757,900; 2427,500;28080,800;40,26928
1050,62;12972,700; 2344,700;28925,600;39,98360
1055,12;13219,200; 2300,600;29808,600;39,69245
1059,62;13514,100; 2304,000;30750,500;39,40766
1064,10;13938,900; 2352,400;31934,300;39,16753
1068,59;14256,300; 2395,400;32879,900;38,90797
1073,07;14576,000; 2329,700;33988,100;38,68262
1077,54;14844,000; 2333,200;34909,400;38,40472
1082,01;15216,500; 2383,100;36084,400;38,07984
1086,48;15457,500; 2367,300;37013,200;37,78283
1090,94;15563,100; 2303,100;37697,100;37,46398
1095,39;16005,100; 2435,000;38991,300;37,12110
1099,85;16246,400; 2333,800;40179,000;36,76186
1104,29;16453,000; 2343,900;41108,400;36,39696
1108,73;16602,500; 2303,100;42037,300;35,98764
1113,17;16741,300; 2407,700;42761,500;35,51983
1117,61;16743,900; 2355,500;43454,900;35,00878
1122,03;16745,700; 2409,900;44116,600;34,37289
1126,46;16588,600; 2310,600;44683,800;33,69583
1130,88;16412,500; 2301,200;45196,100;32,89738
1135,29;16322,800; 2423,100;45857,400;32,00167
1139,70;16090,300; 2288,100;46461,700;31,24536
1144,11;16100,000; 2306,000;47061,800;30,82059
1148,51;16356,700; 2313,600;47677,600;30,95649
1152,90;16665,000; 2332,800;47946,200;31,42103
1157,29;16971,800; 2292,900;48421,700;31,82155
1161,68;17114,000; 2313,100;48619,300;31,96311
1166,06;17121,900; 2309,600;48732,900;31,90704
1170,44;17027,100; 2366,100;48547,000;31,74689
1174,81;16642,500; 2318,600;47745,300;31,53190
1179,18;16472,200; 2329,700;47463,900;31,33433
1183,54;16226,300; 2345,800;47060,900;31,04209
1187,90;16057,100; 2377,500;46950,700;30,69019
1192,25;15654,800; 2344,700;46149,700;30,38489
1196,60;15372,900; 2296,300;45763,400;30,08390
1200,94;15161,300; 2354,600;45323,500;29,80458
1205,28;14822,600; 2332,300;44562,200;29,57691
1209,62;14630,300; 2337,500;44056,300;29,46585
1213,95;14545,900; 2380,000;43765,500;29,39653
1218,27;14283,200; 2311,400;43022,100;29,40701
1222,59;14057,300; 2400,700;42056,700;29,39429
1226,91;13888,000; 2335,900;41649,600;29,38441
1231,22;13588,900; 2314,200;40767,800;29,32027
1235,52;13268,300; 2271,300;39901,100;29,22418
1239,82;13099,100; 2322,400;39388,100;29,07459
1244,12;12767,900; 2318,100;38438,000;28,93087
1248,41;12584,700; 2354,100;37852,300;28,82005
1252,70;12209,400; 2253,500;37010,900;28,64397
1256,98;12097,300; 2299,300;36667,700;28,50875
1261,26;11952,500; 2367,800;36177,100;28,34930
1265,53;11565,300; 2238,400;35319,900;28,19370
1269,80;11445,500; 2285,700;34968,200;28,02662
1274,06;11261,100; 2342,500;34372,200;27,84478
1278,32;11020,400; 2321,300;33766,300;27,66449
1282,57;10863,400; 2318,100;33423,400;27,47217
1286,82;10636,600; 2307,600;32829,200;27,28887
1291,06;10461,400; 2356,700;32275,900;27,08863
1295,30;10297,000; 2338,100;31892,600;26,92957
1299,53;10172,800; 2338,200;31647,500;26,73076
1303,76; 9948,600; 2323,600;31079,700;26,51611
1307,99; 9815,600; 2367,800;30595,000;26,38519
1312,20; 9609,600; 2359,900;30024,100;26,20607
1316,42; 9244,600; 2280,800;29032,600;26,03115
1320,63; 9062,500; 2300,900;28458,500;25,84947
1324,83; 8803,700; 2245,000;27777,100;25,68806
1329,03; 8657,800; 2317,800;27170,400;25,51041
1333,23; 8453,100; 2274,500;26672,500;25,32421
1337,42; 8350,200; 2337,300;26255,200;25,13975
1341,60; 8097,800; 2270,000;25620,600;24,95782
1345,78; 7961,300; 2322,700;25115,000;24,73906
1349,96; 7712,000; 2241,600;24490,500;24,58728
1354,13; 7525,200; 2280,700;23745,200;24,43337
1358,29; 7296,700; 2244,300;23082,400;24,24597
1362,46; 7143,400; 2319,600;22366,700;24,06233
1366,61; 6970,000; 2323,300;21817,100;23,83681
1370,76; 6725,900; 2261,900;21157,200;23,62492
1374,91; 6628,900; 2372,400;20568,000;23,39302
1379,05; 6354,100; 2274,100;19879,800;23,17431
1383,18; 6395,600; 2400,400;19767,200;23,00481
1387,32; 6220,600; 2240,200;19676,200;22,82863
1391,44; 6246,200; 2273,200;19905,300;22,53277
1395,56; 6394,800; 2416,900;20153,000;22,42827
1399,68; 6223,600; 2211,300;20249,800;22,24298
1403,79; 6293,800; 2272,300;20517,600;22,04129
1407,90; 6235,200; 2245,600;20456,300;21,90800
1412,00; 6258,100; 2271,700;20615,900;21,73112
1416,10; 6262,100; 2318,300;20574,800;21,60217
1420,19; 6168,600; 2266,200;20394,400;21,52668
1424,27; 6153,000; 2289,200;20322,000;21,42651
1428,36; 6114,100; 2300,300;20186,500;21,32258
1432,43; 6087,600; 2322,800;20034,000;21,25661
1436,50; 5967,600; 2262,400;19772,900;21,15988
1440,57; 5996,200; 2312,900;19797,100;21,06645
1444,63; 5904,200; 2279,300;19549,200;20,98970
1448,69; 5818,600; 2235,800;19361,400;20,92073
1452,74; 5816,400; 2272,400;19303,800;20,80862
1456,79; 5730,600; 2232,800;19131,100;20,69912
1460,83; 5706,800; 2263,600;18961,800;20,62019
1464,87; 5725,300; 2350,200;18781,300;20,54093
1468,90; 5671,900; 2310,200;18791,500;20,39706
1472,93; 5602,300; 2306,900;18491,800;20,36095
1476,95; 5561,100; 2315,800;18328,800;20,26666
1480,96; 5490,500; 2282,900;18145,100;20,22166
1484,98; 5469,600; 2291,100;18038,800;20,18390
1488,98; 5419,000; 2297,500;17808,200;20,12482
1492,98; 5367,200; 2311,900;17607,700;19,97476
1496,98; 5287,400; 2283,500;17361,700;19,92214
1500,97; 5278,700; 2313,000;17233,100;19,87721
1504,96; 5147,700; 2226,000;17033,400;19,73135
1508,94; 5203,000; 2304,800;17050,500;19,65454
1512,92; 5099,700; 2244,700;16883,900;19,50243
1516,89; 5070,600; 2245,000;16798,700;19,41499
1520,85; 5041,800; 2249,200;16740,000;19,27154
1524,81; 5084,400; 2344,200;16642,100;19,16505
1528,77; 4957,300; 2238,800;16473,000;19,09837
1532,72; 4933,000; 2252,300;16334,200;19,03649
1536,67; 4961,600; 2346,800;16198,700;18,87683
1540,61; 4834,800; 2261,900;15919,100;18,83915
1544,54; 4838,400; 2298,100;15815,100;18,79337
1548,47; 4722,600; 2230,000;15593,800;18,65188
1552,40; 4729,700; 2281,600;15410,700;18,64637
1556,32; 4688,300; 2276,600;15285,000;18,53956
1560,23; 4616,700; 2270,100;14999,600;18,43435
1564,15; 4607,000; 2284,800;14941,900;18,34701
1568,05; 4547,800; 2254,700;14763,000;18,33263
1571,95; 4532,700; 2299,800;14583,200;18,17819
1575,84; 4459,900; 2264,700;14396,200;18,09504
1579,73; 4432,300; 2278,600;14216,200;18,04131
1583,62; 4387,600; 2291,000;14037,500;17,84872
1587,50; 4283,300; 2227,300;13824,900;17,72781
1591,37; 4350,500; 2341,500;13765,300;17,58609
1595,24; 4256,600; 2290,900;13552,200;17,45536
1599,11; 4138,600; 2218,500;13299,400;17,32801
1602,96; 4104,300; 2233,800;13148,300;17,13775
1606,82; 4013,400; 2199,200;12931,900;16,90348
1610,67; 4012,300; 2259,900;12768,200;16,67634
1614,51; 3964,900; 2253,600;12662,100;16,44137
1618,35; 3853,600; 2200,500;12443,200;16,13930
1622,18; 3847,400; 2259,000;12320,000;15,78770
1626,01; 3785,500; 2261,500;12204,900;15,32675
1629,83; 3727,400; 2264,200;12060,300;14,93656
1633,65; 3691,000; 2285,600;11926,300;14,57778
1637,46; 3577,100; 2232,700;11710,000;14,18547
1641,27; 3539,500; 2240,500;11611,900;13,86132
1645,07; 3472,300; 2223,100;11460,600;13,52314
1648,86; 3450,100; 2252,200;11293,600;13,24905
1652,66; 3404,100; 2239,700;11231,400;12,94972
1656,44; 3335,600; 2248,900;11068,200;12,32184
1660,22; 3281,900; 2279,900;10946,100;11,56216
1664,00; 3228,500; 2293,300;10899,400;10,86671
1667,77; 3116,500; 2255,400;10706,100;10,18969
1671,53; 3066,800; 2267,200;10535,100; 9,67114
1675,29; 2989,200; 2218,100;10422,700; 9,39839
1679,05; 3034,200; 2268,300;10347,700; 9,47966
1682,80; 3022,300; 2250,400;10217,700; 9,68835
1686,54; 3070,800; 2284,500;10131,800;10,02001
1690,28; 3070,000; 2278,500;10016,500;10,22874
1694,01; 3028,500; 2220,600; 9797,600;10,66253
1697,74; 3049,800; 2222,200; 9685,200;11,08937
1701,46; 3109,400; 2264,100; 9639,900;11,46045
1705,18; 3104,900; 2239,900; 9483,800;11,94108
1708,89; 3042,000; 2178,500; 9321,400;12,08893
1712,60; 3125,600; 2263,700; 9310,100;12,23178
1716,30; 3158,200; 2296,000; 9229,900;12,43456
1720,00; 3134,400; 2272,600; 9164,500;12,50453
1723,69; 3131,100; 2274,100; 9040,800;12,66496
1727,38; 3048,900; 2189,500; 8867,100;12,86989
1731,06; 3119,600; 2257,500; 8834,400;13,10800
1734,73; 3094,800; 2236,800; 8714,100;13,24626
1738,40; 3076,500; 2214,400; 8628,400;13,44091
1742,07; 3133,200; 2286,100; 8625,700;13,36204
1745,73; 3083,000; 2245,800; 8533,600;13,31467
1749,38; 3095,700; 2278,500; 8445,700;13,25075

