psgreen
Integration time [ms]:  15,000
Averaging Nr. [scans]: 10
Smoothing Nr. [pixels]: 0
Data measured with spectrometer [name]: 1204091U1
Wave   ;Sample   ;Dark     ;Reference;Reflectance
[nm]   ;[counts] ;[counts] ;[counts] ;[%]

1014,48; 6517,300; 2348,500;19637,500;24,11244
1019,01; 6803,400; 2352,700;20829,700;24,08778
1023,54; 7098,400; 2377,000;21962,200;24,10698
1028,07; 7325,500; 2352,700;23028,700;24,05107
1032,59; 7596,600; 2345,300;24165,800;24,06590
1037,10; 7933,200; 2317,300;25614,800;24,10516
1041,62; 8233,400; 2350,000;26799,400;24,06358
1046,12; 8611,700; 2427,500;28080,800;24,10684
1050,62; 8755,300; 2344,700;28925,600;24,11732
1055,12; 8941,400; 2300,600;29808,600;24,14134
1059,62; 9179,900; 2304,000;30750,500;24,17134
1064,10; 9513,400; 2352,400;31934,300;24,20737
1068,59; 9768,200; 2395,400;32879,900;24,18541
1073,07; 9984,400; 2329,700;33988,100;24,17905
1077,54;10189,200; 2333,200;34909,400;24,11577
1082,01;10453,100; 2383,100;36084,400;23,94566
1086,48;10626,200; 2367,300;37013,200;23,83803
1090,94;10660,100; 2303,100;37697,100;23,61135
1095,39;10969,400; 2435,000;38991,300;23,34591
1099,85;11058,700; 2333,800;40179,000;23,05418
1104,29;11157,100; 2343,900;41108,400;22,73523
1108,73;11184,700; 2303,100;42037,300;22,35253
1113,17;11301,200; 2407,700;42761,500;22,03882
1117,61;11307,400; 2355,500;43454,900;21,78110
1122,03;11432,300; 2409,900;44116,600;21,63298
1126,46;11491,800; 2310,600;44683,800;21,66747
1130,88;11650,200; 2301,200;45196,100;21,79513
1135,29;11953,200; 2423,100;45857,400;21,94141
1139,70;12066,300; 2288,100;46461,700;22,13585
1144,11;12336,100; 2306,000;47061,800;22,41073
1148,51;12657,700; 2313,600;47677,600;22,80244
1152,90;12944,400; 2332,800;47946,200;23,26422
1157,29;13214,200; 2292,900;48421,700;23,67566
1161,68;13422,100; 2313,100;48619,300;23,99031
1166,06;13541,800; 2309,600;48732,900;24,19518
1170,44;13611,300; 2366,100;48547,000;24,35033
1174,81;13416,600; 2318,600;47745,300;24,43057
1179,18;13401,300; 2329,700;47463,900;24,53040
1183,54;13336,600; 2345,800;47060,900;24,57962
1187,90;13334,100; 2377,500;46950,700;24,58114
1192,25;13120,900; 2344,700;46149,700;24,60039
1196,60;12994,900; 2296,300;45763,400;24,61310
1200,94;12934,000; 2354,600;45323,500;24,62106
1205,28;12731,900; 2332,300;44562,200;24,62615
1209,62;12642,300; 2337,500;44056,300;24,70061
1213,95;12604,700; 2380,000;43765,500;24,70600
1218,27;12402,600; 2311,400;43022,100;24,78759
1222,59;12259,200; 2400,700;42056,700;24,86005
1226,91;12127,000; 2335,900;41649,600;24,90506
1231,22;11908,900; 2314,200;40767,800;24,95137
1235,52;11672,700; 2271,300;39901,100;24,98392
1239,82;11573,300; 2322,400;39388,100;24,95811
1244,12;11329,100; 2318,100;38438,000;24,94747
1248,41;11212,900; 2354,100;37852,300;24,95563
1252,70;10915,300; 2253,500;37010,900;24,92074
1256,98;10858,800; 2299,300;36667,700;24,90515
1261,26;10793,600; 2367,800;36177,100;24,92155
1265,53;10463,300; 2238,400;35319,900;24,86254
1269,80;10415,300; 2285,700;34968,200;24,87447
1274,06;10300,500; 2342,500;34372,200;24,84569
1278,32;10122,900; 2321,300;33766,300;24,81030
1282,57;10016,500; 2318,100;33423,400;24,74948
1286,82; 9850,200; 2307,600;32829,200;24,71233
1291,06; 9731,300; 2356,700;32275,900;24,64839
1295,30; 9613,100; 2338,100;31892,600;24,61554
1299,53; 9531,400; 2338,200;31647,500;24,54238
1303,76; 9346,600; 2323,600;31079,700;24,42264
1307,99; 9259,500; 2367,800;30595,000;24,41510
1312,20; 9089,300; 2359,900;30024,100;24,32530
1316,42; 8766,100; 2280,800;29032,600;24,24248
1320,63; 8625,900; 2300,900;28458,500;24,18035
1324,83; 8405,100; 2245,000;27777,100;24,12688
1329,03; 8292,900; 2317,800;27170,400;24,04215
1333,23; 8115,100; 2274,500;26672,500;23,93885
1337,42; 8043,200; 2337,300;26255,200;23,85619
1341,60; 7812,600; 2270,000;25620,600;23,73644
1345,78; 7714,600; 2322,700;25115,000;23,65667
1349,96; 7478,700; 2241,600;24490,500;23,53869
1354,13; 7310,900; 2280,700;23745,200;23,43497
1358,29; 7118,400; 2244,300;23082,400;23,39033
1362,46; 6985,500; 2319,600;22366,700;23,27469
1366,61; 6841,900; 2323,300;21817,100;23,17968
1370,76; 6628,600; 2261,900;21157,200;23,10998
1374,91; 6559,000; 2372,400;20568,000;23,00886
1379,05; 6306,900; 2274,100;19879,800;22,90622
1383,18; 6363,000; 2400,400;19767,200;22,81710
1387,32; 6193,000; 2240,200;19676,200;22,67034
1391,44; 6239,000; 2273,200;19905,300;22,49193
1395,56; 6393,700; 2416,900;20153,000;22,42207
1399,68; 6236,400; 2211,300;20249,800;22,31394
1403,79; 6320,300; 2272,300;20517,600;22,18654
1407,90; 6264,700; 2245,600;20456,300;22,06999
1412,00; 6298,400; 2271,700;20615,900;21,95081
1416,10; 6314,800; 2318,300;20574,800;21,89083
1420,19; 6233,000; 2266,200;20394,400;21,88193
1424,27; 6218,000; 2289,200;20322,000;21,78697
1428,36; 6190,100; 2300,300;20186,500;21,74749
1432,43; 6154,100; 2322,800;20034,000;21,63207
1436,50; 6035,700; 2262,400;19772,900;21,54879
1440,57; 6066,900; 2312,900;19797,100;21,47081
1444,63; 5979,300; 2279,300;19549,200;21,42456
1448,69; 5888,800; 2235,800;19361,400;21,33064
1452,74; 5891,200; 2272,400;19303,800;21,24781
1456,79; 5807,600; 2232,800;19131,100;21,15479
1460,83; 5790,200; 2263,600;18961,800;21,11964
1464,87; 5808,900; 2350,200;18781,300;21,04972
1468,90; 5772,800; 2310,200;18791,500;21,00927
1472,93; 5697,400; 2306,900;18491,800;20,94854
1476,95; 5657,800; 2315,800;18328,800;20,87054
1480,96; 5590,100; 2282,900;18145,100;20,84957
1484,98; 5560,700; 2291,100;18038,800;20,76240
1488,98; 5516,200; 2297,500;17808,200;20,75148
1492,98; 5471,700; 2311,900;17607,700;20,65796
1496,98; 5385,200; 2283,500;17361,700;20,57076
1500,97; 5367,800; 2313,000;17233,100;20,47439
1504,96; 5241,500; 2226,000;17033,400;20,36482
1508,94; 5301,900; 2304,800;17050,500;20,32525
1512,92; 5196,200; 2244,700;16883,900;20,16162
1516,89; 5168,100; 2245,000;16798,700;20,08493
1520,85; 5134,700; 2249,200;16740,000;19,91263
1524,81; 5182,100; 2344,200;16642,100;19,84837
1528,77; 5049,200; 2238,800;16473,000;19,74400
1532,72; 5022,400; 2252,300;16334,200;19,67135
1536,67; 5060,500; 2346,800;16198,700;19,59081
1540,61; 4926,300; 2261,900;15919,100;19,50912
1544,54; 4939,100; 2298,100;15815,100;19,53836
1548,47; 4827,400; 2230,000;15593,800;19,43609
1552,40; 4822,900; 2281,600;15410,700;19,35624
1556,32; 4787,400; 2276,600;15285,000;19,30137
1560,23; 4717,400; 2270,100;14999,600;19,22542
1564,15; 4708,500; 2284,800;14941,900;19,14894
1568,05; 4649,700; 2254,700;14763,000;19,14729
1571,95; 4632,500; 2299,800;14583,200;18,99067
1575,84; 4561,400; 2264,700;14396,200;18,93171
1579,73; 4523,200; 2278,600;14216,200;18,80277
1583,62; 4487,900; 2291,000;14037,500;18,70259
1587,50; 4392,400; 2227,300;13824,900;18,66852
1591,37; 4458,400; 2341,500;13765,300;18,53061
1595,24; 4364,500; 2290,900;13552,200;18,41350
1599,11; 4256,200; 2218,500;13299,400;18,38930
1602,96; 4220,800; 2233,800;13148,300;18,20514
1606,82; 4138,600; 2199,200;12931,900;18,07001
1610,67; 4141,700; 2259,900;12768,200;17,90775
1614,51; 4096,300; 2253,600;12662,100;17,70380
1618,35; 3999,300; 2200,500;12443,200;17,56178
1622,18; 4001,800; 2259,000;12320,000;17,32233
1626,01; 3963,900; 2261,500;12204,900;17,12090
1629,83; 3922,100; 2264,200;12060,300;16,92408
1633,65; 3891,900; 2285,600;11926,300;16,66165
1637,46; 3789,400; 2232,700;11710,000;16,42556
1641,27; 3757,100; 2240,500;11611,900;16,18328
1645,07; 3707,800; 2223,100;11460,600;16,07253
1648,86; 3678,600; 2252,200;11293,600;15,77632
1652,66; 3648,900; 2239,700;11231,400;15,67223
1656,44; 3595,900; 2248,900;11068,200;15,27332
1660,22; 3567,700; 2279,900;10946,100;14,86003
1664,00; 3521,500; 2293,300;10899,400;14,27127
1667,77; 3420,600; 2255,400;10706,100;13,78821
1671,53; 3379,000; 2267,200;10535,100;13,44719
1675,29; 3294,200; 2218,100;10422,700;13,11581
1679,05; 3327,400; 2268,300;10347,700;13,10865
1682,80; 3296,200; 2250,400;10217,700;13,12615
1686,54; 3338,600; 2284,500;10131,800;13,43265
1690,28; 3317,700; 2278,500;10016,500;13,42983
1694,01; 3258,100; 2220,600; 9797,600;13,69275
1697,74; 3259,700; 2222,200; 9685,200;13,90192
1701,46; 3301,500; 2264,100; 9639,900;14,06491
1705,18; 3264,500; 2239,900; 9483,800;14,14431
1708,89; 3207,600; 2178,500; 9321,400;14,40731
1712,60; 3270,400; 2263,700; 9310,100;14,28673
1716,30; 3296,900; 2296,000; 9229,900;14,43488
1720,00; 3266,900; 2272,600; 9164,500;14,42708
1723,69; 3250,800; 2274,100; 9040,800;14,43392
1727,38; 3173,300; 2189,500; 8867,100;14,73284
1731,06; 3228,200; 2257,500; 8834,400;14,75923
1734,73; 3200,800; 2236,800; 8714,100;14,88274
1738,40; 3177,700; 2214,400; 8628,400;15,01871
1742,07; 3240,300; 2286,100; 8625,700;15,05142
1745,73; 3182,400; 2245,800; 8533,600;14,89551
1749,38; 3195,300; 2278,500; 8445,700;14,86574

