squarepearl-2
Integration time [ms]:  15,000
Averaging Nr. [scans]: 10
Smoothing Nr. [pixels]: 0
Data measured with spectrometer [name]: 1204091U1
Wave   ;Sample   ;Dark     ;Reference;Reflectance
[nm]   ;[counts] ;[counts] ;[counts] ;[%]

1014,48; 4200,500; 2348,500;19637,500;10,71201
1019,01; 4324,700; 2352,700;20829,700;10,67273
1023,54; 4468,800; 2377,000;21962,200;10,68051
1028,07; 4552,400; 2352,700;23028,700;10,63891
1032,59; 4670,000; 2345,300;24165,800;10,65374
1037,10; 4800,500; 2317,300;25614,800;10,65865
1041,62; 4956,500; 2350,000;26799,400;10,66079
1046,12; 5164,000; 2427,500;28080,800;10,66724
1050,62; 5191,900; 2344,700;28925,600;10,71145
1055,12; 5255,200; 2300,600;29808,600;10,74088
1059,62; 5372,700; 2304,000;30750,500;10,78762
1064,10; 5560,700; 2352,400;31934,300;10,84548
1068,59; 5711,600; 2395,400;32879,900;10,87832
1073,07; 5783,800; 2329,700;33988,100;10,91053
1077,54; 5893,900; 2333,200;34909,400;10,93037
1082,01; 6065,600; 2383,100;36084,400;10,92688
1086,48; 6175,400; 2367,300;37013,200;10,99149
1090,94; 6181,000; 2303,100;37697,100;10,95638
1095,39; 6437,900; 2435,000;38991,300;10,94996
1099,85; 6472,000; 2333,800;40179,000;10,93454
1104,29; 6576,600; 2343,900;41108,400;10,91901
1108,73; 6636,600; 2303,100;42037,300;10,90622
1113,17; 6806,300; 2407,700;42761,500;10,90009
1117,61; 6837,100; 2355,500;43454,900;10,90430
1122,03; 6947,700; 2409,900;44116,600;10,88027
1126,46; 6933,500; 2310,600;44683,800;10,90996
1130,88; 7008,500; 2301,200;45196,100;10,97403
1135,29; 7224,900; 2423,100;45857,400;11,05532
1139,70; 7224,300; 2288,100;46461,700;11,17455
1144,11; 7338,400; 2306,000;47061,800;11,24413
1148,51; 7418,400; 2313,600;47677,600;11,25298
1152,90; 7480,300; 2332,800;47946,200;11,28506
1157,29; 7506,300; 2292,900;48421,700;11,30183
1161,68; 7535,600; 2313,100;48619,300;11,27819
1166,06; 7566,200; 2309,600;48732,900;11,32319
1170,44; 7619,100; 2366,100;48547,000;11,37483
1174,81; 7504,200; 2318,600;47745,300;11,41531
1179,18; 7513,400; 2329,700;47463,900;11,48508
1183,54; 7508,000; 2345,800;47060,900;11,54465
1187,90; 7545,900; 2377,500;46950,700;11,59531
1192,25; 7444,700; 2344,700;46149,700;11,64251
1196,60; 7384,600; 2296,300;45763,400;11,70609
1200,94; 7403,000; 2354,600;45323,500;11,74896
1205,28; 7298,300; 2332,300;44562,200;11,75944
1209,62; 7269,300; 2337,500;44056,300;11,82153
1213,95; 7281,500; 2380,000;43765,500;11,84352
1218,27; 7161,900; 2311,400;43022,100;11,91456
1222,59; 7157,600; 2400,700;42056,700;11,99541
1226,91; 7086,200; 2335,900;41649,600;12,08307
1231,22; 6988,400; 2314,200;40767,800;12,15543
1235,52; 6871,400; 2271,300;39901,100;12,22462
1239,82; 6867,300; 2322,400;39388,100;12,26174
1244,12; 6762,900; 2318,100;38438,000;12,30568
1248,41; 6741,200; 2354,100;37852,300;12,35865
1252,70; 6558,500; 2253,500;37010,900;12,38585
1256,98; 6580,600; 2299,300;36667,700;12,45708
1261,26; 6593,900; 2367,800;36177,100;12,49982
1265,53; 6370,400; 2238,400;35319,900;12,49036
1269,80; 6386,000; 2285,700;34968,200;12,54586
1274,06; 6373,800; 2342,500;34372,200;12,58613
1278,32; 6284,500; 2321,300;33766,300;12,60359
1282,57; 6251,900; 2318,100;33423,400;12,64672
1286,82; 6174,100; 2307,600;32829,200;12,66808
1291,06; 6148,200; 2356,700;32275,900;12,67246
1295,30; 6077,900; 2338,100;31892,600;12,65391
1299,53; 6039,600; 2338,200;31647,500;12,62876
1303,76; 5948,700; 2323,600;31079,700;12,60637
1307,99; 5907,700; 2367,800;30595,000;12,54074
1312,20; 5829,000; 2359,900;30024,100;12,54003
1316,42; 5639,500; 2280,800;29032,600;12,55504
1320,63; 5601,100; 2300,900;28458,500;12,61660
1324,83; 5472,300; 2245,000;27777,100;12,64017
1329,03; 5450,200; 2317,800;27170,400;12,60391
1333,23; 5340,300; 2274,500;26672,500;12,56578
1337,42; 5336,300; 2337,300;26255,200;12,53873
1341,60; 5196,200; 2270,000;25620,600;12,53158
1345,78; 5166,800; 2322,700;25115,000;12,47834
1349,96; 5002,500; 2241,600;24490,500;12,40915
1354,13; 4914,100; 2280,700;23745,200;12,26863
1358,29; 4788,100; 2244,300;23082,400;12,20745
1362,46; 4753,800; 2319,600;22366,700;12,14240
1366,61; 4685,700; 2323,300;21817,100;12,11872
1370,76; 4556,700; 2261,900;21157,200;12,14482
1374,91; 4595,900; 2372,400;20568,000;12,21999
1379,05; 4449,300; 2274,100;19879,800;12,35509
1383,18; 4573,700; 2400,400;19767,200;12,51411
1387,32; 4421,200; 2240,200;19676,200;12,50860
1391,44; 4470,900; 2273,200;19905,300;12,46420
1395,56; 4639,100; 2416,900;20153,000;12,52925
1399,68; 4464,200; 2211,300;20249,800;12,48940
1403,79; 4548,600; 2272,300;20517,600;12,47609
1407,90; 4529,200; 2245,600;20456,300;12,53988
1412,00; 4565,000; 2271,700;20615,900;12,50150
1416,10; 4619,700; 2318,300;20574,800;12,60592
1420,19; 4574,700; 2266,200;20394,400;12,73430
1424,27; 4591,600; 2289,200;20322,000;12,76785
1428,36; 4608,000; 2300,300;20186,500;12,90213
1432,43; 4624,800; 2322,800;20034,000;12,99743
1436,50; 4556,700; 2262,400;19772,900;13,10242
1440,57; 4614,200; 2312,900;19797,100;13,16217
1444,63; 4562,300; 2279,300;19549,200;13,21953
1448,69; 4518,700; 2235,800;19361,400;13,33034
1452,74; 4556,500; 2272,400;19303,800;13,41111
1456,79; 4507,200; 2232,800;19131,100;13,45934
1460,83; 4518,400; 2263,600;18961,800;13,50325
1464,87; 4566,700; 2350,200;18781,300;13,48966
1468,90; 4538,400; 2310,200;18791,500;13,51956
1472,93; 4502,000; 2306,900;18491,800;13,56264
1476,95; 4499,500; 2315,800;18328,800;13,63704
1480,96; 4459,200; 2282,900;18145,100;13,72004
1484,98; 4461,000; 2291,100;18038,800;13,77916
1488,98; 4443,800; 2297,500;17808,200;13,83754
1492,98; 4440,500; 2311,900;17607,700;13,91624
1496,98; 4400,100; 2283,500;17361,700;14,03748
1500,97; 4421,600; 2313,000;17233,100;14,13261
1504,96; 4334,500; 2226,000;17033,400;14,23950
1508,94; 4414,100; 2304,800;17050,500;14,30451
1512,92; 4336,600; 2244,700;16883,900;14,28972
1516,89; 4335,700; 2245,000;16798,700;14,36542
1520,85; 4332,500; 2249,200;16740,000;14,37671
1524,81; 4398,500; 2344,200;16642,100;14,36784
1528,77; 4285,400; 2238,800;16473,000;14,37805
1532,72; 4291,700; 2252,300;16334,200;14,48242
1536,67; 4349,800; 2346,800;16198,700;14,46011
1540,61; 4242,500; 2261,900;15919,100;14,50224
1544,54; 4273,700; 2298,100;15815,100;14,61567
1548,47; 4176,900; 2230,000;15593,800;14,56846
1552,40; 4189,400; 2281,600;15410,700;14,53108
1556,32; 4164,600; 2276,600;15285,000;14,51370
1560,23; 4124,600; 2270,100;14999,600;14,56852
1564,15; 4126,800; 2284,800;14941,900;14,55310
1568,05; 4079,200; 2254,700;14763,000;14,58631
1571,95; 4093,400; 2299,800;14583,200;14,60182
1575,84; 4045,700; 2264,700;14396,200;14,68079
1579,73; 4030,500; 2278,600;14216,200;14,67548
1583,62; 4010,500; 2291,000;14037,500;14,63840
1587,50; 3942,600; 2227,300;13824,900;14,79013
1591,37; 4031,600; 2341,500;13765,300;14,79455
1595,24; 3955,400; 2290,900;13552,200;14,78071
1599,11; 3863,400; 2218,500;13299,400;14,84446
1602,96; 3847,800; 2233,800;13148,300;14,78767
1606,82; 3774,000; 2199,200;12931,900;14,67292
1610,67; 3785,700; 2259,900;12768,200;14,51995
1614,51; 3739,100; 2253,600;12662,100;14,27199
1618,35; 3634,000; 2200,500;12443,200;13,99533
1622,18; 3638,500; 2259,000;12320,000;13,71136
1626,01; 3584,100; 2261,500;12204,900;13,30129
1629,83; 3529,600; 2264,200;12060,300;12,91739
1633,65; 3497,500; 2285,600;11926,300;12,57066
1637,46; 3380,700; 2232,700;11710,000;12,11315
1641,27; 3337,900; 2240,500;11611,900;11,71010
1645,07; 3275,700; 2223,100;11460,600;11,39486
1648,86; 3260,800; 2252,200;11293,600;11,15535
1652,66; 3230,000; 2239,700;11231,400;11,01349
1656,44; 3219,200; 2248,900;11068,200;11,00201
1660,22; 3252,100; 2279,900;10946,100;11,21830
1664,00; 3292,100; 2293,300;10899,400;11,60572
1667,77; 3269,100; 2255,400;10706,100;11,99546
1671,53; 3295,500; 2267,200;10535,100;12,43726
1675,29; 3263,900; 2218,100;10422,700;12,74651
1679,05; 3317,100; 2268,300;10347,700;12,98116
1682,80; 3284,600; 2250,400;10217,700;12,98056
1686,54; 3337,600; 2284,500;10131,800;13,41990
1690,28; 3318,000; 2278,500;10016,500;13,43370
1694,01; 3249,500; 2220,600; 9797,600;13,57925
1697,74; 3228,100; 2222,200; 9685,200;13,47849
1701,46; 3252,600; 2264,100; 9639,900;13,40194
1705,18; 3214,200; 2239,900; 9483,800;13,44994
1708,89; 3141,000; 2178,500; 9321,400;13,47492
1712,60; 3212,200; 2263,700; 9310,100;13,46077
1716,30; 3228,200; 2296,000; 9229,900;13,44409
1720,00; 3205,200; 2272,600; 9164,500;13,53183
1723,69; 3192,100; 2274,100; 9040,800;13,56644
1727,38; 3107,000; 2189,500; 8867,100;13,73997
1731,06; 3165,700; 2257,500; 8834,400;13,80894
1734,73; 3143,300; 2236,800; 8714,100;13,99503
1738,40; 3128,100; 2214,400; 8628,400;14,24540
1742,07; 3196,300; 2286,100; 8625,700;14,35737
1745,73; 3154,500; 2245,800; 8533,600;14,45180
1749,38; 3185,100; 2278,500; 8445,700;14,70035

