squarepearl
Integration time [ms]:  15,000
Averaging Nr. [scans]: 10
Smoothing Nr. [pixels]: 0
Data measured with spectrometer [name]: 1204091U1
Wave   ;Sample   ;Dark     ;Reference;Reflectance
[nm]   ;[counts] ;[counts] ;[counts] ;[%]

1014,48;15741,100; 2348,500;19637,500;77,46313
1019,01;16689,400; 2352,700;20829,700;77,59214
1023,54;17585,900; 2377,000;21962,200;77,65507
1028,07;18422,800; 2352,700;23028,700;77,72345
1032,59;19325,100; 2345,300;24165,800;77,81582
1037,10;20485,200; 2317,300;25614,800;77,98219
1041,62;21432,900; 2350,000;26799,400;78,05059
1046,12;22464,300; 2427,500;28080,800;78,10613
1050,62;23121,100; 2344,700;28925,600;78,16289
1055,12;23829,400; 2300,600;29808,600;78,26378
1059,62;24622,300; 2304,000;30750,500;78,45710
1064,10;25615,000; 2352,400;31934,300;78,63795
1068,59;26416,600; 2395,400;32879,900;78,79808
1073,07;27345,900; 2329,700;33988,100;79,01915
1077,54;28102,500; 2333,200;34909,400;79,10468
1082,01;29043,000; 2383,100;36084,400;79,10644
1086,48;29795,400; 2367,300;37013,200;79,16694
1090,94;30334,700; 2303,100;37697,100;79,19873
1095,39;31357,300; 2435,000;38991,300;79,11714
1099,85;32236,800; 2333,800;40179,000;79,01398
1104,29;32889,700; 2343,900;41108,400;78,79839
1108,73;33528,200; 2303,100;42037,300;78,58495
1113,17;34053,300; 2407,700;42761,500;78,42037
1117,61;34505,800; 2355,500;43454,900;78,22572
1122,03;34934,300; 2409,900;44116,600;77,98363
1126,46;35304,100; 2310,600;44683,800;77,86407
1130,88;35762,700; 2301,200;45196,100;78,00811
1135,29;36501,300; 2423,100;45857,400;78,45919
1139,70;37157,300; 2288,100;46461,700;78,93674
1144,11;37748,400; 2306,000;47061,800;79,19063
1148,51;38254,700; 2313,600;47677,600;79,22824
1152,90;38447,300; 2332,800;47946,200;79,17520
1157,29;38775,600; 2292,900;48421,700;79,08877
1161,68;38867,700; 2313,100;48619,300;78,94105
1166,06;38864,400; 2309,600;48732,900;78,74236
1170,44;38682,600; 2366,100;48547,000;78,63965
1174,81;38052,300; 2318,600;47745,300;78,66233
1179,18;37931,600; 2329,700;47463,900;78,88010
1183,54;37731,100; 2345,800;47060,900;79,13501
1187,90;37790,800; 2377,500;46950,700;79,44976
1192,25;37267,100; 2344,700;46149,700;79,72241
1196,60;37028,800; 2296,300;45763,400;79,90526
1200,94;36723,000; 2354,600;45323,500;79,98436
1205,28;36104,300; 2332,300;44562,200;79,97177
1209,62;35714,300; 2337,500;44056,300;80,00422
1213,95;35517,500; 2380,000;43765,500;80,07031
1218,27;35013,300; 2311,400;43022,100;80,32753
1222,59;34403,400; 2400,700;42056,700;80,70078
1226,91;34185,100; 2335,900;41649,600;81,01298
1231,22;33558,200; 2314,200;40767,800;81,25117
1235,52;32899,600; 2271,300;39901,100;81,39374
1239,82;32504,300; 2322,400;39388,100;81,42811
1244,12;31764,000; 2318,100;38438,000;81,52265
1248,41;31340,200; 2354,100;37852,300;81,65513
1252,70;30677,200; 2253,500;37010,900;81,77741
1256,98;30434,000; 2299,300;36667,700;81,86212
1261,26;30085,900; 2367,800;36177,100;81,98366
1265,53;29369,800; 2238,400;35319,900;82,01381
1269,80;29136,000; 2285,700;34968,200;82,15498
1274,06;28693,200; 2342,500;34372,200;82,26958
1278,32;28204,100; 2321,300;33766,300;82,31134
1282,57;27944,100; 2318,100;33423,400;82,38467
1286,82;27436,100; 2307,600;32829,200;82,33022
1291,06;26968,900; 2356,700;32275,900;82,26223
1295,30;26643,400; 2338,100;31892,600;82,23891
1299,53;26423,200; 2338,200;31647,500;82,17528
1303,76;25924,700; 2323,600;31079,700;82,07337
1307,99;25515,500; 2367,800;30595,000;82,00495
1312,20;25032,400; 2359,900;30024,100;81,95610
1316,42;24187,900; 2280,800;29032,600;81,89019
1320,63;23734,400; 2300,900;28458,500;81,93986
1324,83;23171,700; 2245,000;27777,100;81,96231
1329,03;22642,400; 2317,800;27170,400;81,78058
1333,23;22183,600; 2274,500;26672,500;81,60136
1337,42;21814,200; 2337,300;26255,200;81,43232
1341,60;21229,800; 2270,000;25620,600;81,19620
1345,78;20765,100; 2322,700;25115,000;80,91505
1349,96;20168,200; 2241,600;24490,500;80,57297
1354,13;19506,900; 2280,700;23745,200;80,25437
1358,29;18912,400; 2244,300;23082,400;79,98858
1362,46;18313,000; 2319,600;22366,700;79,77912
1366,61;17848,900; 2323,300;21817,100;79,64378
1370,76;17299,500; 2261,900;21157,200;79,58381
1374,91;16818,100; 2372,400;20568,000;79,39117
1379,05;16259,500; 2274,100;19879,800;79,43677
1383,18;16199,200; 2400,400;19767,200;79,45505
1387,32;16062,500; 2240,200;19676,200;79,27449
1391,44;16196,500; 2273,200;19905,300;78,96564
1395,56;16380,200; 2416,900;20153,000;78,72813
1399,68;16390,100; 2211,300;20249,800;78,60299
1403,79;16596,200; 2272,300;20517,600;78,50734
1407,90;16550,600; 2245,600;20456,300;78,55272
1412,00;16689,300; 2271,700;20615,900;78,59487
1416,10;16693,300; 2318,300;20574,800;78,73908
1420,19;16595,700; 2266,200;20394,400;79,04535
1424,27;16604,200; 2289,200;20322,000;79,38312
1428,36;16580,100; 2300,300;20186,500;79,83697
1432,43;16534,400; 2322,800;20034,000;80,24075
1436,50;16371,900; 2262,400;19772,900;80,57737
1440,57;16423,800; 2312,900;19797,100;80,70658
1444,63;16251,100; 2279,300;19549,200;80,90261
1448,69;16154,700; 2235,800;19361,400;81,27540
1452,74;16173,800; 2272,400;19303,800;81,62218
1456,79;16055,800; 2232,800;19131,100;81,80113
1460,83;15942,900; 2263,600;18961,800;81,92081
1464,87;15838,500; 2350,200;18781,300;82,09006
1468,90;15889,800; 2310,200;18791,500;82,39399
1472,93;15690,700; 2306,900;18491,800;82,69313
1476,95;15593,800; 2315,800;18328,800;82,92013
1480,96;15483,000; 2282,900;18145,100;83,21733
1484,98;15400,000; 2291,100;18038,800;83,24327
1488,98;15222,800; 2297,500;17808,200;83,33151
1492,98;15081,300; 2311,900;17607,700;83,48305
1496,98;14899,200; 2283,500;17361,700;83,66848
1500,97;14829,200; 2313,000;17233,100;83,88818
1504,96;14667,100; 2226,000;17033,400;84,01948
1508,94;14702,700; 2304,800;17050,500;84,07807
1512,92;14557,100; 2244,700;16883,900;84,10569
1516,89;14485,400; 2245,000;16798,700;84,10507
1520,85;14433,500; 2249,200;16740,000;84,08300
1524,81;14387,100; 2344,200;16642,100;84,22845
1528,77;14223,900; 2238,800;16473,000;84,19932
1532,72;14113,500; 2252,300;16334,200;84,23011
1536,67;14008,600; 2346,800;16198,700;84,18917
1540,61;13756,200; 2261,900;15919,100;84,16293
1544,54;13686,900; 2298,100;15815,100;84,25538
1548,47;13502,200; 2230,000;15593,800;84,34876
1552,40;13378,100; 2281,600;15410,700;84,51836
1556,32;13270,400; 2276,600;15285,000;84,51308
1560,23;13040,200; 2270,100;14999,600;84,60741
1564,15;12986,500; 2284,800;14941,900;84,55096
1568,05;12824,200; 2254,700;14763,000;84,49989
1571,95;12670,300; 2299,800;14583,200;84,42695
1575,84;12492,000; 2264,700;14396,200;84,30367
1579,73;12343,500; 2278,600;14216,200;84,31259
1583,62;12183,800; 2291,000;14037,500;84,21913
1587,50;11989,600; 2227,300;13824,900;84,17517
1591,37;11935,000; 2341,500;13765,300;83,97819
1595,24;11724,100; 2290,900;13552,200;83,76653
1599,11;11470,500; 2218,500;13299,400;83,49502
1602,96;11293,300; 2233,800;13148,300;83,00426
1606,82;11034,000; 2199,200;12931,900;82,31666
1610,67;10821,400; 2259,900;12768,200;81,47369
1614,51;10595,500; 2253,600;12662,100;80,14507
1618,35;10289,400; 2200,500;12443,200;78,97234
1622,18;10053,500; 2259,000;12320,000;77,47242
1626,01; 9787,100; 2261,500;12204,900;75,68437
1629,83; 9472,600; 2264,200;12060,300;73,58439
1633,65; 9168,400; 2285,600;11926,300;71,39316
1637,46; 8744,500; 2232,700;11710,000;68,70944
1641,27; 8394,300; 2240,500;11611,900;65,66575
1645,07; 8035,800; 2223,100;11460,600;62,92503
1648,86; 7716,000; 2252,200;11293,600;60,43091
1652,66; 7483,400; 2239,700;11231,400;58,31711
1656,44; 7285,300; 2248,900;11068,200;57,10657
1660,22; 7209,700; 2279,900;10946,100;56,88537
1664,00; 7331,100; 2293,300;10899,400;58,53755
1667,77; 7490,100; 2255,400;10706,100;61,94398
1671,53; 7641,800; 2267,200;10535,100;65,00562
1675,29; 7693,500; 2218,100;10422,700;66,73573
1679,05; 7748,500; 2268,300;10347,700;67,82929
1682,80; 7693,100; 2250,400;10217,700;68,31298
1686,54; 7736,700; 2284,500;10131,800;69,47867
1690,28; 7741,700; 2278,500;10016,500;70,60222
1694,01; 7592,700; 2220,600; 9797,600;70,90009
1697,74; 7472,200; 2222,200; 9685,200;70,34705
1701,46; 7392,000; 2264,100; 9639,900;69,52331
1705,18; 7229,500; 2239,900; 9483,800;68,88002
1708,89; 7062,400; 2178,500; 9321,400;68,37419
1712,60; 7050,400; 2263,700; 9310,100;67,93114
1716,30; 6969,900; 2296,000; 9229,900;67,40651
1720,00; 6899,800; 2272,600; 9164,500;67,13969
1723,69; 6822,100; 2274,100; 9040,800;67,21149
1727,38; 6693,200; 2189,500; 8867,100;67,44489
1731,06; 6734,900; 2257,500; 8834,400;68,07767
1734,73; 6752,100; 2236,800; 8714,100;69,70960
1738,40; 6798,100; 2214,400; 8628,400;71,46399
1742,07; 6888,500; 2286,100; 8625,700;72,59764
1745,73; 6867,700; 2245,800; 8533,600;73,50584
1749,38; 6834,800; 2278,500; 8445,700;73,87956

