yellowcheesegrater
Integration time [ms]:  15,000
Averaging Nr. [scans]: 10
Smoothing Nr. [pixels]: 0
Data measured with spectrometer [name]: 1204091U1
Wave   ;Sample   ;Dark     ;Reference;Reflectance
[nm]   ;[counts] ;[counts] ;[counts] ;[%]

1014,48; 4110,900; 2348,500;19637,500;10,19376
1019,01; 4212,900; 2352,700;20829,700;10,06765
1023,54; 4336,300; 2377,000;21962,200;10,00398
1028,07; 4402,200; 2352,700;23028,700; 9,91246
1032,59; 4496,800; 2345,300;24165,800; 9,85999
1037,10; 4610,000; 2317,300;25614,800; 9,84097
1041,62; 4727,600; 2350,000;26799,400; 9,72457
1046,12; 4921,600; 2427,500;28080,800; 9,72234
1050,62; 4915,700; 2344,700;28925,600; 9,67236
1055,12; 4951,400; 2300,600;29808,600; 9,63647
1059,62; 5034,400; 2304,000;30750,500; 9,59837
1064,10; 5189,400; 2352,400;31934,300; 9,59032
1068,59; 5305,700; 2395,400;32879,900; 9,54682
1073,07; 5347,700; 2329,700;33988,100; 9,53301
1077,54; 5433,100; 2333,200;34909,400; 9,51584
1082,01; 5554,600; 2383,100;36084,400; 9,41062
1086,48; 5628,300; 2367,300;37013,200; 9,41237
1090,94; 5606,700; 2303,100;37697,100; 9,33379
1095,39; 5823,000; 2435,000;38991,300; 9,26790
1099,85; 5810,300; 2333,800;40179,000; 9,18611
1104,29; 5870,200; 2343,900;41108,400; 9,09673
1108,73; 5867,700; 2303,100;42037,300; 8,97111
1113,17; 5982,600; 2407,700;42761,500; 8,85889
1117,61; 5928,300; 2355,500;43454,900; 8,69307
1122,03; 5946,200; 2409,900;44116,600; 8,47897
1126,46; 5794,700; 2310,600;44683,800; 8,22241
1130,88; 5706,100; 2301,200;45196,100; 7,93777
1135,29; 5740,900; 2423,100;45857,400; 7,63866
1139,70; 5570,200; 2288,100;46461,700; 7,43000
1144,11; 5597,800; 2306,000;47061,800; 7,35502
1148,51; 5717,100; 2313,600;47677,600; 7,50265
1152,90; 5893,400; 2332,800;47946,200; 7,80604
1157,29; 6029,400; 2292,900;48421,700; 8,10015
1161,68; 6150,100; 2313,100;48619,300; 8,28615
1166,06; 6201,900; 2309,600;48732,900; 8,38437
1170,44; 6253,500; 2366,100;48547,000; 8,41777
1174,81; 6130,700; 2318,600;47745,300; 8,39176
1179,18; 6109,500; 2329,700;47463,900; 8,37458
1183,54; 6061,000; 2345,800;47060,900; 8,30860
1187,90; 6042,800; 2377,500;46950,700; 8,22310
1192,25; 5916,600; 2344,700;46149,700; 8,15409
1196,60; 5812,800; 2296,300;45763,400; 8,09003
1200,94; 5811,900; 2354,600;45323,500; 8,04605
1205,28; 5724,100; 2332,300;44562,200; 8,03175
1209,62; 5701,700; 2337,500;44056,300; 8,06399
1213,95; 5735,500; 2380,000;43765,500; 8,10791
1218,27; 5656,500; 2311,400;43022,100; 8,21676
1222,59; 5692,700; 2400,700;42056,700; 8,30139
1226,91; 5635,800; 2335,900;41649,600; 8,39377
1231,22; 5570,900; 2314,200;40767,800; 8,46917
1235,52; 5478,100; 2271,300;39901,100; 8,52197
1239,82; 5488,900; 2322,400;39388,100; 8,54294
1244,12; 5416,200; 2318,100;38438,000; 8,57727
1248,41; 5415,600; 2354,100;37852,300; 8,62438
1252,70; 5244,400; 2253,500;37010,900; 8,60507
1256,98; 5262,600; 2299,300;36667,700; 8,62216
1261,26; 5284,300; 2367,800;36177,100; 8,62632
1265,53; 5096,100; 2238,400;35319,900; 8,63836
1269,80; 5117,000; 2285,700;34968,200; 8,66305
1274,06; 5120,000; 2342,500;34372,200; 8,67164
1278,32; 5050,700; 2321,300;33766,300; 8,67992
1282,57; 5005,700; 2318,100;33423,400; 8,64033
1286,82; 4941,300; 2307,600;32829,200; 8,62897
1291,06; 4935,200; 2356,700;32275,900; 8,61821
1295,30; 4880,300; 2338,100;31892,600; 8,60174
1299,53; 4851,700; 2338,200;31647,500; 8,57578
1303,76; 4781,300; 2323,600;31079,700; 8,54671
1307,99; 4782,400; 2367,800;30595,000; 8,55416
1312,20; 4725,000; 2359,900;30024,100; 8,54932
1316,42; 4570,000; 2280,800;29032,600; 8,55718
1320,63; 4534,900; 2300,900;28458,500; 8,54054
1324,83; 4435,000; 2245,000;27777,100; 8,57744
1329,03; 4449,000; 2317,800;27170,400; 8,57536
1333,23; 4368,900; 2274,500;26672,500; 8,58431
1337,42; 4381,700; 2337,300;26255,200; 8,54757
1341,60; 4261,100; 2270,000;25620,600; 8,52698
1345,78; 4265,100; 2322,700;25115,000; 8,52218
1349,96; 4141,000; 2241,600;24490,500; 8,53705
1354,13; 4099,100; 2280,700;23745,200; 8,47166
1358,29; 4011,900; 2244,300;23082,400; 8,48254
1362,46; 4013,600; 2319,600;22366,700; 8,45010
1366,61; 3957,700; 2323,300;21817,100; 8,38420
1370,76; 3844,200; 2261,900;21157,200; 8,37404
1374,91; 3878,500; 2372,400;20568,000; 8,27728
1379,05; 3727,700; 2274,100;19879,800; 8,25642
1383,18; 3826,900; 2400,400;19767,200; 8,21395
1387,32; 3656,200; 2240,200;19676,200; 8,12113
1391,44; 3698,800; 2273,200;19905,300; 8,08525
1395,56; 3856,500; 2416,900;20153,000; 8,11678
1399,68; 3663,300; 2211,300;20249,800; 8,04945
1403,79; 3737,900; 2272,300;20517,600; 8,03275
1407,90; 3704,700; 2245,600;20456,300; 8,01232
1412,00; 3732,300; 2271,700;20615,900; 7,96219
1416,10; 3788,000; 2318,300;20574,800; 8,05028
1420,19; 3738,200; 2266,200;20394,400; 8,11995
1424,27; 3757,000; 2289,200;20322,000; 8,13961
1428,36; 3769,700; 2300,300;20186,500; 8,21527
1432,43; 3784,500; 2322,800;20034,000; 8,25297
1436,50; 3713,600; 2262,400;19772,900; 8,28760
1440,57; 3765,900; 2312,900;19797,100; 8,31036
1444,63; 3719,800; 2279,300;19549,200; 8,34110
1448,69; 3676,400; 2235,800;19361,400; 8,41197
1452,74; 3709,400; 2272,400;19303,800; 8,43736
1456,79; 3667,000; 2232,800;19131,100; 8,48724
1460,83; 3681,300; 2263,600;18961,800; 8,49014
1464,87; 3750,100; 2350,200;18781,300; 8,51982
1468,90; 3715,000; 2310,200;18791,500; 8,52360
1472,93; 3697,700; 2306,900;18491,800; 8,59319
1476,95; 3686,300; 2315,800;18328,800; 8,55867
1480,96; 3654,100; 2282,900;18145,100; 8,64445
1484,98; 3660,600; 2291,100;18038,800; 8,69651
1488,98; 3653,300; 2297,500;17808,200; 8,74106
1492,98; 3660,300; 2311,900;17607,700; 8,81549
1496,98; 3627,800; 2283,500;17361,700; 8,91552
1500,97; 3651,000; 2313,000;17233,100; 8,96777
1504,96; 3564,700; 2226,000;17033,400; 9,04075
1508,94; 3641,900; 2304,800;17050,500; 9,06773
1512,92; 3574,100; 2244,700;16883,900; 9,08110
1516,89; 3580,500; 2245,000;16798,700; 9,17636
1520,85; 3581,700; 2249,200;16740,000; 9,19549
1524,81; 3669,000; 2344,200;16642,100; 9,26570
1528,77; 3559,800; 2238,800;16473,000; 9,28047
1532,72; 3573,300; 2252,300;16334,200; 9,38084
1536,67; 3648,000; 2346,800;16198,700; 9,39366
1540,61; 3550,300; 2261,900;15919,100; 9,43385
1544,54; 3585,400; 2298,100;15815,100; 9,52356
1548,47; 3501,100; 2230,000;15593,800; 9,51152
1552,40; 3536,300; 2281,600;15410,700; 9,55663
1556,32; 3517,600; 2276,600;15285,000; 9,53999
1560,23; 3488,000; 2270,100;14999,600; 9,56754
1564,15; 3496,200; 2284,800;14941,900; 9,57091
1568,05; 3462,300; 2254,700;14763,000; 9,65439
1571,95; 3486,700; 2299,800;14583,200; 9,66263
1575,84; 3434,800; 2264,700;14396,200; 9,64514
1579,73; 3429,000; 2278,600;14216,200; 9,63678
1583,62; 3423,600; 2291,000;14037,500; 9,64202
1587,50; 3347,700; 2227,300;13824,900; 9,66062
1591,37; 3445,000; 2341,500;13765,300; 9,65966
1595,24; 3371,500; 2290,900;13552,200; 9,59569
1599,11; 3271,500; 2218,500;13299,400; 9,50284
1602,96; 3252,400; 2233,800;13148,300; 9,33254
1606,82; 3187,600; 2199,200;12931,900; 9,20924
1610,67; 3216,300; 2259,900;12768,200; 9,10138
1614,51; 3172,700; 2253,600;12662,100; 8,83028
1618,35; 3070,800; 2200,500;12443,200; 8,49678
1622,18; 3074,000; 2259,000;12320,000; 8,10059
1626,01; 3021,700; 2261,500;12204,900; 7,64527
1629,83; 2968,100; 2264,200;12060,300; 7,18551
1633,65; 2943,700; 2285,600;11926,300; 6,82627
1637,46; 2851,400; 2232,700;11710,000; 6,52823
1641,27; 2831,400; 2240,500;11611,900; 6,30535
1645,07; 2790,700; 2223,100;11460,600; 6,14452
1648,86; 2801,900; 2252,200;11293,600; 6,07981
1652,66; 2774,500; 2239,700;11231,400; 5,94771
1656,44; 2726,500; 2248,900;11068,200; 5,41540
1660,22; 2692,000; 2279,900;10946,100; 4,75526
1664,00; 2655,500; 2293,300;10899,400; 4,20864
1667,77; 2571,700; 2255,400;10706,100; 3,74289
1671,53; 2560,300; 2267,200;10535,100; 3,54504
1675,29; 2509,600; 2218,100;10422,700; 3,55288
1679,05; 2559,300; 2268,300;10347,700; 3,60175
1682,80; 2552,800; 2250,400;10217,700; 3,79551
1686,54; 2603,000; 2284,500;10131,800; 4,05872
1690,28; 2605,300; 2278,500;10016,500; 4,22331
1694,01; 2560,400; 2220,600; 9797,600; 4,48462
1697,74; 2584,500; 2222,200; 9685,200; 4,85462
1701,46; 2650,600; 2264,100; 9639,900; 5,24011
1705,18; 2647,700; 2239,900; 9483,800; 5,62956
1708,89; 2602,000; 2178,500; 9321,400; 5,92896
1712,60; 2687,100; 2263,700; 9310,100; 6,00874
1716,30; 2729,100; 2296,000; 9229,900; 6,24612
1720,00; 2714,100; 2272,600; 9164,500; 6,40607
1723,69; 2709,700; 2274,100; 9040,800; 6,43741
1727,38; 2633,200; 2189,500; 8867,100; 6,64460
1731,06; 2714,500; 2257,500; 8834,400; 6,94856
1734,73; 2703,300; 2236,800; 8714,100; 7,20207
1738,40; 2702,800; 2214,400; 8628,400; 7,61459
1742,07; 2778,900; 2286,100; 8625,700; 7,77336
1745,73; 2723,600; 2245,800; 8533,600; 7,59884
1749,38; 2739,200; 2278,500; 8445,700; 7,47016

