202-backside
Integration time [ms]:  15,000
Averaging Nr. [scans]: 10
Smoothing Nr. [pixels]: 0
Data measured with spectrometer [name]: 1204091U1
Wave   ;Sample   ;Dark     ;Reference;Reflectance
[nm]   ;[counts] ;[counts] ;[counts] ;[%]

1014,48;14949,100; 2348,500;19637,500;72,88218
1019,01;15711,700; 2352,700;20829,700;72,30070
1023,54;16457,700; 2377,000;21962,200;71,89459
1028,07;17120,000; 2352,700;23028,700;71,42242
1032,59;17835,400; 2345,300;24165,800;70,98875
1037,10;18760,700; 2317,300;25614,800;70,58011
1041,62;19521,300; 2350,000;26799,400;70,23199
1046,12;20365,500; 2427,500;28080,800;69,92473
1050,62;20878,800; 2344,700;28925,600;69,72713
1055,12;21420,200; 2300,600;29808,600;69,50560
1059,62;22022,600; 2304,000;30750,500;69,31819
1064,10;22788,100; 2352,400;31934,300;69,08177
1068,59;23371,800; 2395,400;32879,900;68,81005
1073,07;24028,000; 2329,700;33988,100;68,53884
1077,54;24551,500; 2333,200;34909,400;68,20409
1082,01;25258,200; 2383,100;36084,400;67,87602
1086,48;25805,800; 2367,300;37013,200;67,65158
1090,94;26145,300; 2303,100;37697,100;67,36226
1095,39;26944,900; 2435,000;38991,300;67,04699
1099,85;27584,700; 2333,800;40179,000;66,72154
1104,29;28094,400; 2343,900;41108,400;66,42805
1108,73;28555,600; 2303,100;42037,300;66,07029
1113,17;28940,000; 2407,700;42761,500;65,74920
1117,61;29244,100; 2355,500;43454,900;65,42334
1122,03;29546,400; 2409,900;44116,600;65,06509
1126,46;29725,700; 2310,600;44683,800;64,69915
1130,88;29882,100; 2301,200;45196,100;64,29879
1135,29;30119,600; 2423,100;45857,400;63,76642
1139,70;30179,300; 2288,100;46461,700;63,13998
1144,11;30223,700; 2306,000;47061,800;62,37784
1148,51;30236,100; 2313,600;47677,600;61,55211
1152,90;30013,900; 2332,800;47946,200;60,68633
1157,29;29825,100; 2292,900;48421,700;59,68549
1161,68;29385,900; 2313,100;48619,300;58,46474
1166,06;28900,400; 2309,600;48732,900;57,27900
1170,44;28478,200; 2366,100;48547,000;56,54307
1174,81;27668,000; 2318,600;47745,300;55,80286
1179,18;27046,200; 2329,700;47463,900;54,76224
1183,54;26214,800; 2345,800;47060,900;53,38018
1187,90;25557,800; 2377,500;46950,700;52,00502
1192,25;24537,100; 2344,700;46149,700;50,66180
1196,60;23604,300; 2296,300;45763,400;49,02098
1200,94;22663,500; 2354,600;45323,500;47,26418
1205,28;21673,900; 2332,300;44562,200;45,80072
1209,62;21057,300; 2337,500;44056,300;44,87138
1213,95;20884,900; 2380,000;43765,500;44,71349
1218,27;20862,400; 2311,400;43022,100;45,56787
1222,59;21123,900; 2400,700;42056,700;47,21404
1226,91;21616,200; 2335,900;41649,600;49,04219
1231,22;21743,000; 2314,200;40767,800;50,52531
1235,52;21681,800; 2271,300;39901,100;51,58279
1239,82;21701,800; 2322,400;39388,100;52,28392
1244,12;21380,500; 2318,100;38438,000;52,77534
1248,41;21208,600; 2354,100;37852,300;53,11396
1252,70;20770,400; 2253,500;37010,900;53,27470
1256,98;20644,000; 2299,300;36667,700;53,37665
1261,26;20423,100; 2367,800;36177,100;53,40335
1265,53;19885,700; 2238,400;35319,900;53,34492
1269,80;19713,300; 2285,700;34968,200;53,32395
1274,06;19380,600; 2342,500;34372,200;53,19469
1278,32;18988,200; 2321,300;33766,300;53,00334
1282,57;18757,200; 2318,100;33423,400;52,84984
1286,82;18380,300; 2307,600;32829,200;52,66008
1291,06;18042,300; 2356,700;32275,900;52,42654
1295,30;17786,500; 2338,100;31892,600;52,27089
1299,53;17592,400; 2338,200;31647,500;52,04560
1303,76;17234,600; 2323,600;31079,700;51,85335
1307,99;16960,800; 2367,800;30595,000;51,69836
1312,20;16621,100; 2359,900;30024,100;51,55110
1316,42;16020,200; 2280,800;29032,600;51,35879
1320,63;15682,900; 2300,900;28458,500;51,15913
1324,83;15251,200; 2245,000;27777,100;50,94058
1329,03;14910,700; 2317,800;27170,400;50,67035
1333,23;14560,200; 2274,500;26672,500;50,35536
1337,42;14309,300; 2337,300;26255,200;50,05456
1341,60;13868,600; 2270,000;25620,600;49,67153
1345,78;13543,400; 2322,700;25115,000;49,23022
1349,96;13094,500; 2241,600;24490,500;48,77949
1354,13;12624,100; 2280,700;23745,200;48,18840
1358,29;12153,900; 2244,300;23082,400;47,55520
1362,46;11692,500; 2319,600;22366,700;46,75439
1366,61;11256,900; 2323,300;21817,100;45,82790
1370,76;10741,700; 2261,900;21157,200;44,87783
1374,91;10362,700; 2372,400;20568,000;43,91336
1379,05; 9838,300; 2274,100;19879,800;42,96449
1383,18; 9693,500; 2400,400;19767,200;41,99450
1387,32; 9380,900; 2240,200;19676,200;40,95377
1391,44; 9293,100; 2273,200;19905,300;39,81318
1395,56; 9454,300; 2416,900;20153,000;39,67840
1399,68; 9472,700; 2211,300;20249,800;40,25501
1403,79; 9597,500; 2272,300;20517,600;40,14842
1407,90; 9474,800; 2245,600;20456,300;39,69754
1412,00; 9453,100; 2271,700;20615,900;39,14807
1416,10; 9400,300; 2318,300;20574,800;38,79166
1420,19; 9317,700; 2266,200;20394,400;38,89796
1424,27; 9316,700; 2289,200;20322,000;38,97065
1428,36; 9290,300; 2300,300;20186,500;39,08041
1432,43; 9261,900; 2322,800;20034,000;39,17916
1436,50; 9135,000; 2262,400;19772,900;39,24845
1440,57; 9204,000; 2312,900;19797,100;39,41330
1444,63; 9140,700; 2279,300;19549,200;39,73040
1448,69; 9078,100; 2235,800;19361,400;39,95364
1452,74; 9113,200; 2272,400;19303,800;40,16581
1456,79; 9043,000; 2232,800;19131,100;40,30110
1460,83; 9006,000; 2263,600;18961,800;40,37800
1464,87; 9006,800; 2350,200;18781,300;40,51220
1468,90; 9014,200; 2310,200;18791,500;40,67640
1472,93; 8908,600; 2306,900;18491,800;40,78925
1476,95; 8859,800; 2315,800;18328,800;40,86680
1480,96; 8771,000; 2282,900;18145,100;40,90290
1484,98; 8729,000; 2291,100;18038,800;40,88153
1488,98; 8640,200; 2297,500;17808,200;40,89242
1492,98; 8568,600; 2311,900;17607,700;40,90469
1496,98; 8452,900; 2283,500;17361,700;40,91602
1500,97; 8398,800; 2313,000;17233,100;40,78927
1504,96; 8240,600; 2226,000;17033,400;40,61888
1508,94; 8272,900; 2304,800;17050,500;40,47349
1512,92; 8137,800; 2244,700;16883,900;40,25562
1516,89; 8077,400; 2245,000;16798,700;40,07503
1520,85; 8022,600; 2249,200;16740,000;39,84183
1524,81; 8017,700; 2344,200;16642,100;39,68065
1528,77; 7854,100; 2238,800;16473,000;39,44935
1532,72; 7793,800; 2252,300;16334,200;39,35193
1536,67; 7772,500; 2346,800;16198,700;39,16936
1540,61; 7589,200; 2261,900;15919,100;39,00726
1544,54; 7586,100; 2298,100;15815,100;39,12111
1548,47; 7468,500; 2230,000;15593,800;39,19918
1552,40; 7427,400; 2281,600;15410,700;39,19385
1556,32; 7379,000; 2276,600;15285,000;39,22389
1560,23; 7244,800; 2270,100;14999,600;39,08009
1564,15; 7220,600; 2284,800;14941,900;38,99629
1568,05; 7123,600; 2254,700;14763,000;38,92535
1571,95; 7063,600; 2299,800;14583,200;38,78242
1575,84; 6952,800; 2264,700;14396,200;38,64403
1579,73; 6874,200; 2278,600;14216,200;38,49685
1583,62; 6789,700; 2291,000;14037,500;38,29822
1587,50; 6658,800; 2227,300;13824,900;38,21049
1591,37; 6692,600; 2341,500;13765,300;38,08803
1595,24; 6562,000; 2290,900;13552,200;37,92724
1599,11; 6404,600; 2218,500;13299,400;37,77762
1602,96; 6342,400; 2233,800;13148,300;37,64350
1606,82; 6217,500; 2199,200;12931,900;37,43979
1610,67; 6172,700; 2259,900;12768,200;37,23533
1614,51; 6112,100; 2253,600;12662,100;37,07066
1618,35; 5972,600; 2200,500;12443,200;36,82720
1622,18; 5953,800; 2259,000;12320,000;36,72398
1626,01; 5890,300; 2261,500;12204,900;36,49456
1629,83; 5815,700; 2264,200;12060,300;36,25422
1633,65; 5761,400; 2285,600;11926,300;36,05340
1637,46; 5629,800; 2232,700;11710,000;35,84460
1641,27; 5562,500; 2240,500;11611,900;35,44828
1645,07; 5480,900; 2223,100;11460,600;35,26712
1648,86; 5408,800; 2252,200;11293,600;34,91273
1652,66; 5355,000; 2239,700;11231,400;34,64640
1656,44; 5265,400; 2248,900;11068,200;34,20339
1660,22; 5213,400; 2279,900;10946,100;33,84990
1664,00; 5168,400; 2293,300;10899,400;33,40770
1667,77; 5032,100; 2255,400;10706,100;32,85763
1671,53; 4934,400; 2267,200;10535,100;32,25970
1675,29; 4808,200; 2218,100;10422,700;31,56888
1679,05; 4751,500; 2268,300;10347,700;30,73496
1682,80; 4638,400; 2250,400;10217,700;29,97251
1686,54; 4567,200; 2284,500;10131,800;29,08899
1690,28; 4443,700; 2278,500;10016,500;27,98139
1694,01; 4256,900; 2220,600; 9797,600;26,87475
1697,74; 4132,500; 2222,200; 9685,200;25,59694
1701,46; 4051,700; 2264,100; 9639,900;24,23602
1705,18; 3887,100; 2239,900; 9483,800;22,73913
1708,89; 3688,200; 2178,500; 9321,400;21,13567
1712,60; 3664,700; 2263,700; 9310,100;19,88249
1716,30; 3609,600; 2296,000; 9229,900;18,94461
1720,00; 3523,300; 2272,600; 9164,500;18,14739
1723,69; 3449,200; 2274,100; 9040,800;17,36592
1727,38; 3297,300; 2189,500; 8867,100;16,58979
1731,06; 3342,600; 2257,500; 8834,400;16,49865
1734,73; 3374,900; 2236,800; 8714,100;17,57059
1738,40; 3445,900; 2214,400; 8628,400;19,20019
1742,07; 3573,000; 2286,100; 8625,700;20,29939
1745,73; 3560,800; 2245,800; 8533,600;20,91352
1749,38; 3595,700; 2278,500; 8445,700;21,35815

