917-2
Integration time [ms]:  15,000
Averaging Nr. [scans]: 10
Smoothing Nr. [pixels]: 0
Data measured with spectrometer [name]: 1204091U1
Wave   ;Sample   ;Dark     ;Reference;Reflectance
[nm]   ;[counts] ;[counts] ;[counts] ;[%]

1014,48;23025,500; 2348,500;19637,500;119,59628
1019,01;24377,600; 2352,700;20829,700;119,20171
1023,54;25673,900; 2377,000;21962,200;118,95156
1028,07;26902,800; 2352,700;23028,700;118,73718
1032,59;28241,400; 2345,300;24165,800;118,67785
1037,10;29977,100; 2317,300;25614,800;118,72433
1041,62;31384,500; 2350,000;26799,400;118,75343
1046,12;32864,100; 2427,500;28080,800;118,64594
1050,62;33860,400; 2344,700;28925,600;118,56521
1055,12;34885,600; 2300,600;29808,600;118,45645
1059,62;36000,900; 2304,000;30750,500;118,45710
1064,10;37409,900; 2352,400;31934,300;118,50997
1068,59;38562,800; 2395,400;32879,900;118,64193
1073,07;39955,900; 2329,700;33988,100;118,85061
1077,54;41048,700; 2333,200;34909,400;118,84597
1082,01;42377,000; 2383,100;36084,400;118,67168
1086,48;43417,700; 2367,300;37013,200;118,48559
1090,94;44163,200; 2303,100;37697,100;118,26892
1095,39;45601,500; 2435,000;38991,300;118,08225
1099,85;46921,100; 2333,800;40179,000;117,81494
1104,29;47888,600; 2343,900;41108,400;117,49075
1108,73;48883,400; 2303,100;42037,300;117,22974
1113,17;49650,400; 2407,700;42761,500;117,07125
1117,61;50413,300; 2355,500;43454,900;116,93066
1122,03;51058,700; 2409,900;44116,600;116,64505
1126,46;51535,100; 2310,600;44683,800;116,16895
1130,88;51937,000; 2301,200;45196,100;115,71492
1135,29;52372,800; 2423,100;45857,400;115,00059
1139,70;52566,100; 2288,100;46461,700;113,81911
1144,11;52639,700; 2306,000;47061,800;112,46297
1148,51;52768,100; 2313,600;47677,600;111,22145
1152,90;52311,300; 2332,800;47946,200;109,56978
1157,29;51818,800; 2292,900;48421,700;107,36438
1161,68;50827,100; 2313,100;48619,300;104,76783
1166,06;49719,600; 2309,600;48732,900;102,12544
1170,44;48637,600; 2366,100;48547,000;100,19619
1174,81;47570,000; 2318,600;47745,300;99,61410
1179,18;47235,400; 2329,700;47463,900;99,49373
1183,54;46613,800; 2345,800;47060,900;99,00011
1187,90;46180,900; 2377,500;46950,700;98,27295
1192,25;45242,900; 2344,700;46149,700;97,92992
1196,60;45116,000; 2296,300;45763,400;98,51060
1200,94;45316,800; 2354,600;45323,500;99,98441
1205,28;45474,700; 2332,300;44562,200;102,16079
1209,62;45998,900; 2337,500;44056,300;104,65641
1213,95;46717,700; 2380,000;43765,500;107,13342
1218,27;46756,900; 2311,400;43022,100;109,17400
1222,59;46368,300; 2400,700;42056,700;110,87250
1226,91;46510,500; 2335,900;41649,600;112,36439
1231,22;45959,500; 2314,200;40767,800;113,50121
1235,52;45359,400; 2271,300;39901,100;114,50526
1239,82;45064,500; 2322,400;39388,100;115,31443
1244,12;44209,100; 2318,100;38438,000;115,97762
1248,41;43721,800; 2354,100;37852,300;116,53464
1252,70;42945,900; 2253,500;37010,900;117,07550
1256,98;42767,400; 2299,300;36667,700;117,74799
1261,26;42362,900; 2367,800;36177,100;118,29615
1265,53;41437,600; 2238,400;35319,900;118,49281
1269,80;41158,700; 2285,700;34968,200;118,94133
1274,06;40512,800; 2342,500;34372,200;119,17158
1278,32;39857,400; 2321,300;33766,300;119,37065
1282,57;39526,700; 2318,100;33423,400;119,62142
1286,82;38898,700; 2307,600;32829,200;119,88592
1291,06;38359,400; 2356,700;32275,900;120,33310
1295,30;38029,500; 2338,100;31892,600;120,76469
1299,53;37898,600; 2338,200;31647,500;121,32804
1303,76;37374,700; 2323,600;31079,700;121,89101
1307,99;36945,300; 2367,800;30595,000;122,49710
1312,20;36379,400; 2359,900;30024,100;122,97301
1316,42;35215,200; 2280,800;29032,600;123,11097
1320,63;34538,400; 2300,900;28458,500;123,24334
1324,83;33794,200; 2245,000;27777,100;123,56680
1329,03;33144,500; 2317,800;27170,400;124,03813
1333,23;32601,000; 2274,500;26672,500;124,29912
1337,42;32146,600; 2337,300;26255,200;124,63176
1341,60;31438,800; 2270,000;25620,600;124,91670
1345,78;30873,800; 2322,700;25115,000;125,26643
1349,96;30135,700; 2241,600;24490,500;125,37294
1354,13;29189,900; 2280,700;23745,200;125,36607
1358,29;28432,300; 2244,300;23082,400;125,67365
1362,46;27425,500; 2319,600;22366,700;125,23457
1366,61;26506,300; 2323,300;21817,100;124,05483
1370,76;25386,000; 2261,900;21157,200;122,38017
1374,91;24293,600; 2372,400;20568,000;120,47528
1379,05;23139,300; 2274,100;19879,800;118,51389
1383,18;22671,400; 2400,400;19767,200;116,72271
1387,32;22374,600; 2240,200;19676,200;115,47603
1391,44;22512,100; 2273,200;19905,300;114,78440
1395,56;22553,500; 2416,900;20153,000;113,53454
1399,68;22446,400; 2211,300;20249,800;112,17729
1403,79;22659,600; 2272,300;20517,600;111,74001
1407,90;22612,100; 2245,600;20456,300;111,83810
1412,00;22679,500; 2271,700;20615,900;111,24933
1416,10;22589,200; 2318,300;20574,800;111,03388
1420,19;22477,100; 2266,200;20394,400;111,48873
1424,27;22501,600; 2289,200;20322,000;112,08686
1428,36;22606,600; 2300,300;20186,500;113,53054
1432,43;22778,900; 2322,800;20034,000;115,49810
1436,50;22886,600; 2262,400;19772,900;117,78190
1440,57;23136,700; 2312,900;19797,100;119,10067
1444,63;22954,100; 2279,300;19549,200;119,71581
1448,69;22880,100; 2235,800;19361,400;120,54643
1452,74;22925,600; 2272,400;19303,800;121,26543
1456,79;22894,200; 2232,800;19131,100;122,26910
1460,83;22829,500; 2263,600;18961,800;123,16238
1464,87;22634,500; 2350,200;18781,300;123,45065
1468,90;22749,000; 2310,200;18791,500;124,01206
1472,93;22427,000; 2306,900;18491,800;124,31402
1476,95;22363,600; 2315,800;18328,800;125,19703
1480,96;22245,800; 2282,900;18145,100;125,85203
1484,98;22184,900; 2291,100;18038,800;126,32829
1488,98;21989,000; 2297,500;17808,200;126,95430
1492,98;21742,300; 2311,900;17607,700;127,03095
1496,98;21436,600; 2283,500;17361,700;127,02511
1500,97;21265,300; 2313,000;17233,100;127,02529
1504,96;21061,800; 2226,000;17033,400;127,20532
1508,94;21146,400; 2304,800;17050,500;127,77691
1512,92;20959,900; 2244,700;16883,900;127,84305
1516,89;20962,200; 2245,000;16798,700;128,60785
1520,85;20940,000; 2249,200;16740,000;128,98391
1524,81;20774,200; 2344,200;16642,100;128,90005
1528,77;20596,500; 2238,800;16473,000;128,96896
1532,72;20458,200; 2252,300;16334,200;129,28582
1536,67;20321,300; 2346,800;16198,700;129,76198
1540,61;20023,300; 2261,900;15919,100;130,05155
1544,54;19817,900; 2298,100;15815,100;129,61308
1548,47;19597,400; 2230,000;15593,800;129,95854
1552,40;19434,700; 2281,600;15410,700;130,64947
1556,32;19320,800; 2276,600;15285,000;131,02457
1560,23;18970,100; 2270,100;14999,600;131,19133
1564,15;18872,700; 2284,800;14941,900;131,05609
1568,05;18609,600; 2254,700;14763,000;130,75238
1571,95;18407,500; 2299,800;14583,200;131,13389
1575,84;18190,400; 2264,700;14396,200;131,27560
1579,73;17970,100; 2278,600;14216,200;131,44602
1583,62;17748,900; 2291,000;14037,500;131,59579
1587,50;17501,900; 2227,300;13824,900;131,70484
1591,37;17375,900; 2341,500;13765,300;131,60595
1595,24;17136,800; 2290,900;13552,200;131,83114
1599,11;16894,000; 2218,500;13299,400;132,43960
1602,96;16621,600; 2233,800;13148,300;131,82280
1606,82;16301,800; 2199,200;12931,900;131,39844
1610,67;16035,100; 2259,900;12768,200;131,08876
1614,51;15843,500; 2253,600;12662,100;130,56540
1618,35;15573,000; 2200,500;12443,200;130,55640
1622,18;15328,700; 2259,000;12320,000;129,90458
1626,01;15135,400; 2261,500;12204,900;129,47181
1629,83;14806,900; 2264,200;12060,300;128,03769
1633,65;14509,700; 2285,600;11926,300;126,79681
1637,46;14175,800; 2232,700;11710,000;126,01796
1641,27;14010,300; 2240,500;11611,900;125,59276
1645,07;13793,500; 2223,100;11460,600;125,25467
1648,86;13499,400; 2252,200;11293,600;124,39666
1652,66;13240,800; 2239,700;11231,400;122,34728
1656,44;12830,200; 2248,900;11068,200;119,97891
1660,22;12414,700; 2279,900;10946,100;116,94630
1664,00;12040,300; 2293,300;10899,400;113,25688
1667,77;11491,200; 2255,400;10706,100;109,29035
1671,53;11002,900; 2267,200;10535,100;105,65803
1675,29;10497,000; 2218,100;10422,700;100,90559
1679,05; 9961,500; 2268,300;10347,700;95,21994
1682,80; 9306,500; 2250,400;10217,700;88,56325
1686,54; 8658,900; 2284,500;10131,800;81,23049
1690,28; 7859,800; 2278,500;10016,500;72,12846
1694,01; 6861,700; 2220,600; 9797,600;61,25247
1697,74; 6042,500; 2222,200; 9685,200;51,18987
1701,46; 5477,600; 2264,100; 9639,900;43,56816
1705,18; 4911,200; 2239,900; 9483,800;36,87654
1708,89; 4416,900; 2178,500; 9321,400;31,33741
1712,60; 4290,100; 2263,700; 9310,100;28,75795
1716,30; 4333,000; 2296,000; 9229,900;29,37741
1720,00; 4543,000; 2272,600; 9164,500;32,94302
1723,69; 4842,000; 2274,100; 9040,800;37,94907
1727,38; 5081,200; 2189,500; 8867,100;43,30448
1731,06; 5377,800; 2257,500; 8834,400;47,44332
1734,73; 5417,900; 2236,800; 8714,100;49,11151
1738,40; 5348,300; 2214,400; 8628,400;48,86031
1742,07; 5357,900; 2286,100; 8625,700;48,45416
1745,73; 5347,700; 2245,800; 8533,600;49,33204
1749,38; 5438,800; 2278,500; 8445,700;51,24368

