blue3mtapeholder-2
Integration time [ms]:  15,000
Averaging Nr. [scans]: 10
Smoothing Nr. [pixels]: 0
Data measured with spectrometer [name]: 1204091U1
Wave   ;Sample   ;Dark     ;Reference;Reflectance
[nm]   ;[counts] ;[counts] ;[counts] ;[%]

1014,48; 9005,900; 2348,500;19637,500;38,50656
1019,01; 9399,800; 2352,700;20829,700;38,13985
1023,54; 9793,700; 2377,000;21962,200;37,86890
1028,07;10117,400; 2352,700;23028,700;37,55417
1032,59;10479,000; 2345,300;24165,800;37,27550
1037,10;10945,200; 2317,300;25614,800;37,03359
1041,62;11329,900; 2350,000;26799,400;36,72851
1046,12;11775,300; 2427,500;28080,800;36,43898
1050,62;11950,400; 2344,700;28925,600;36,13760
1055,12;12158,600; 2300,600;29808,600;35,83685
1059,62;12403,900; 2304,000;30750,500;35,50490
1064,10;12768,100; 2352,400;31934,300;35,20971
1068,59;13017,300; 2395,400;32879,900;34,84361
1073,07;13262,000; 2329,700;33988,100;34,53207
1077,54;13463,000; 2333,200;34909,400;34,16543
1082,01;13763,800; 2383,100;36084,400;33,76932
1086,48;13973,600; 2367,300;37013,200;33,49978
1090,94;14061,400; 2303,100;37697,100;33,22117
1095,39;14484,000; 2435,000;38991,300;32,96012
1099,85;14705,600; 2333,800;40179,000;32,69054
1104,29;14911,600; 2343,900;41108,400;32,42064
1108,73;15052,800; 2303,100;42037,300;32,08747
1113,17;15190,200; 2407,700;42761,500;31,67608
1117,61;15176,500; 2355,500;43454,900;31,19510
1122,03;15155,600; 2409,900;44116,600;30,56032
1126,46;14953,700; 2310,600;44683,800;29,83749
1130,88;14740,200; 2301,200;45196,100;28,99879
1135,29;14597,500; 2423,100;45857,400;28,02946
1139,70;14316,300; 2288,100;46461,700;27,22939
1144,11;14330,100; 2306,000;47061,800;26,86602
1148,51;14603,800; 2313,600;47677,600;27,09241
1152,90;14970,700; 2332,800;47946,200;27,70655
1157,29;15347,400; 2292,900;48421,700;28,30011
1161,68;15539,900; 2313,100;48619,300;28,56378
1166,06;15589,100; 2309,600;48732,900;28,60525
1170,44;15528,900; 2366,100;48547,000;28,50269
1174,81;15176,300; 2318,600;47745,300;28,30428
1179,18;15013,300; 2329,700;47463,900;28,10197
1183,54;14776,200; 2345,800;47060,900;27,79911
1187,90;14602,800; 2377,500;46950,700;27,42747
1192,25;14210,200; 2344,700;46149,700;27,08709
1196,60;13930,800; 2296,300;45763,400;26,76622
1200,94;13731,400; 2354,600;45323,500;26,47682
1205,28;13430,000; 2332,300;44562,200;26,27925
1209,62;13264,200; 2337,500;44056,300;26,19131
1213,95;13211,900; 2380,000;43765,500;26,17318
1218,27;13004,800; 2311,400;43022,100;26,26680
1222,59;12852,900; 2400,700;42056,700;26,35717
1226,91;12729,100; 2335,900;41649,600;26,43659
1231,22;12486,300; 2314,200;40767,800;26,45292
1235,52;12228,600; 2271,300;39901,100;26,46121
1239,82;12098,100; 2322,400;39388,100;26,37398
1244,12;11815,700; 2318,100;38438,000;26,29465
1248,41;11662,800; 2354,100;37852,300;26,22302
1252,70;11316,100; 2253,500;37010,900;26,07387
1256,98;11224,500; 2299,300;36667,700;25,96920
1261,26;11106,800; 2367,800;36177,100;25,84792
1265,53;10740,700; 2238,400;35319,900;25,70107
1269,80;10648,600; 2285,700;34968,200;25,58831
1274,06;10494,400; 2342,500;34372,200;25,45107
1278,32;10266,900; 2321,300;33766,300;25,26825
1282,57;10132,700; 2318,100;33423,400;25,12305
1286,82; 9919,900; 2307,600;32829,200;24,94070
1291,06; 9768,800; 2356,700;32275,900;24,77372
1295,30; 9611,000; 2338,100;31892,600;24,60844
1299,53; 9498,000; 2338,200;31647,500;24,42842
1303,76; 9289,600; 2323,600;31079,700;24,22443
1307,99; 9169,700; 2367,800;30595,000;24,09697
1312,20; 8982,000; 2359,900;30024,100;23,93744
1316,42; 8639,300; 2280,800;29032,600;23,76849
1320,63; 8482,200; 2300,900;28458,500;23,63099
1324,83; 8243,700; 2245,000;27777,100;23,49474
1329,03; 8116,900; 2317,800;27170,400;23,33398
1333,23; 7929,000; 2274,500;26672,500;23,17608
1337,42; 7851,200; 2337,300;26255,200;23,05345
1341,60; 7606,400; 2270,000;25620,600;22,85337
1345,78; 7493,800; 2322,700;25115,000;22,68793
1349,96; 7248,200; 2241,600;24490,500;22,50269
1354,13; 7072,800; 2280,700;23745,200;22,32570
1358,29; 6871,200; 2244,300;23082,400;22,20404
1362,46; 6728,300; 2319,600;22366,700;21,99171
1366,61; 6561,600; 2323,300;21817,100;21,74178
1370,76; 6328,000; 2261,900;21157,200;21,51911
1374,91; 6244,900; 2372,400;20568,000;21,28262
1379,05; 5979,300; 2274,100;19879,800;21,04546
1383,18; 6021,700; 2400,400;19767,200;20,85186
1387,32; 5837,500; 2240,200;19676,200;20,63145
1391,44; 5859,100; 2273,200;19905,300;20,33734
1395,56; 6013,000; 2416,900;20153,000;20,27560
1399,68; 5839,300; 2211,300;20249,800;20,11254
1403,79; 5905,800; 2272,300;20517,600;19,91472
1407,90; 5844,500; 2245,600;20456,300;19,76256
1412,00; 5880,300; 2271,700;20615,900;19,67161
1416,10; 5895,500; 2318,300;20574,800;19,59412
1420,19; 5821,800; 2266,200;20394,400;19,61364
1424,27; 5819,000; 2289,200;20322,000;19,57433
1428,36; 5799,500; 2300,300;20186,500;19,56369
1432,43; 5780,900; 2322,800;20034,000;19,52493
1436,50; 5669,800; 2262,400;19772,900;19,45918
1440,57; 5715,800; 2312,900;19797,100;19,46271
1444,63; 5638,200; 2279,300;19549,200;19,44945
1448,69; 5565,600; 2235,800;19361,400;19,44341
1452,74; 5580,300; 2272,400;19303,800;19,42236
1456,79; 5504,000; 2232,800;19131,100;19,35816
1460,83; 5488,400; 2263,600;18961,800;19,31226
1464,87; 5513,800; 2350,200;18781,300;19,25373
1468,90; 5481,500; 2310,200;18791,500;19,24181
1472,93; 5417,700; 2306,900;18491,800;19,22038
1476,95; 5389,600; 2315,800;18328,800;19,19565
1480,96; 5321,200; 2282,900;18145,100;19,15434
1484,98; 5303,700; 2291,100;18038,800;19,13041
1488,98; 5260,600; 2297,500;17808,200;19,10359
1492,98; 5236,500; 2311,900;17607,700;19,12028
1496,98; 5158,900; 2283,500;17361,700;19,06992
1500,97; 5155,000; 2313,000;17233,100;19,04813
1504,96; 5045,700; 2226,000;17033,400;19,04251
1508,94; 5107,700; 2304,800;17050,500;19,00825
1512,92; 5021,900; 2244,700;16883,900;18,97098
1516,89; 5001,000; 2245,000;16798,700;18,93677
1520,85; 4987,900; 2249,200;16740,000;18,89958
1524,81; 5040,000; 2344,200;16642,100;18,85452
1528,77; 4913,300; 2238,800;16473,000;18,78925
1532,72; 4904,700; 2252,300;16334,200;18,83553
1536,67; 4947,600; 2346,800;16198,700;18,77576
1540,61; 4818,500; 2261,900;15919,100;18,71980
1544,54; 4833,000; 2298,100;15815,100;18,75342
1548,47; 4725,400; 2230,000;15593,800;18,67283
1552,40; 4726,700; 2281,600;15410,700;18,62352
1556,32; 4691,100; 2276,600;15285,000;18,56108
1560,23; 4627,700; 2270,100;14999,600;18,52076
1564,15; 4618,200; 2284,800;14941,900;18,43550
1568,05; 4559,900; 2254,700;14763,000;18,42936
1571,95; 4548,800; 2299,800;14583,200;18,30926
1575,84; 4489,600; 2264,700;14396,200;18,33986
1579,73; 4448,500; 2278,600;14216,200;18,17702
1583,62; 4414,600; 2291,000;14037,500;18,07858
1587,50; 4315,600; 2227,300;13824,900;18,00631
1591,37; 4389,200; 2341,500;13765,300;17,92486
1595,24; 4286,600; 2290,900;13552,200;17,72176
1599,11; 4174,700; 2218,500;13299,400;17,65380
1602,96; 4130,900; 2233,800;13148,300;17,38147
1606,82; 4037,600; 2199,200;12931,900;17,12896
1610,67; 4033,900; 2259,900;12768,200;16,88189
1614,51; 3971,500; 2253,600;12662,100;16,50478
1618,35; 3852,600; 2200,500;12443,200;16,12954
1622,18; 3832,400; 2259,000;12320,000;15,63860
1626,01; 3761,200; 2261,500;12204,900;15,08237
1629,83; 3685,900; 2264,200;12060,300;14,51292
1633,65; 3637,000; 2285,600;11926,300;14,01765
1637,46; 3522,200; 2232,700;11710,000;13,60620
1641,27; 3475,100; 2240,500;11611,900;13,17413
1645,07; 3418,300; 2223,100;11460,600;12,93857
1648,86; 3394,100; 2252,200;11293,600;12,62968
1652,66; 3345,200; 2239,700;11231,400;12,29467
1656,44; 3258,900; 2248,900;11068,200;11,45216
1660,22; 3194,000; 2279,900;10946,100;10,54788
1664,00; 3115,200; 2293,300;10899,400; 9,55020
1667,77; 2984,800; 2255,400;10706,100; 8,63124
1671,53; 2929,800; 2267,200;10535,100; 8,01413
1675,29; 2861,700; 2218,100;10422,700; 7,84438
1679,05; 2914,800; 2268,300;10347,700; 8,00183
1682,80; 2905,700; 2250,400;10217,700; 8,22487
1686,54; 2966,300; 2284,500;10131,800; 8,68834
1690,28; 2982,800; 2278,500;10016,500; 9,10184
1694,01; 2944,200; 2220,600; 9797,600; 9,54995
1697,74; 2978,600; 2222,200; 9685,200;10,13533
1701,46; 3060,200; 2264,100; 9639,900;10,79341
1705,18; 3057,900; 2239,900; 9483,800;11,29226
1708,89; 3008,700; 2178,500; 9321,400;11,62273
1712,60; 3094,700; 2263,700; 9310,100;11,79326
1716,30; 3129,400; 2296,000; 9229,900;12,01921
1720,00; 3114,600; 2272,600; 9164,500;12,21724
1723,69; 3106,800; 2274,100; 9040,800;12,30585
1727,38; 3033,100; 2189,500; 8867,100;12,63328
1731,06; 3113,500; 2257,500; 8834,400;13,01525
1734,73; 3104,500; 2236,800; 8714,100;13,39601
1738,40; 3096,600; 2214,400; 8628,400;13,75429
1742,07; 3165,100; 2286,100; 8625,700;13,86523
1745,73; 3112,000; 2245,800; 8533,600;13,77588
1749,38; 3125,300; 2278,500; 8445,700;13,73070

