blue3mtapeholder
Integration time [ms]:  15,000
Averaging Nr. [scans]: 10
Smoothing Nr. [pixels]: 0
Data measured with spectrometer [name]: 1204091U1
Wave   ;Sample   ;Dark     ;Reference;Reflectance
[nm]   ;[counts] ;[counts] ;[counts] ;[%]

1014,48; 8997,900; 2348,500;19637,500;38,46029
1019,01; 9387,800; 2352,700;20829,700;38,07490
1023,54; 9777,600; 2377,000;21962,200;37,78670
1028,07;10095,000; 2352,700;23028,700;37,44583
1032,59;10453,700; 2345,300;24165,800;37,15955
1037,10;10910,000; 2317,300;25614,800;36,88250
1041,62;11280,800; 2350,000;26799,400;36,52769
1046,12;11718,100; 2427,500;28080,800;36,21600
1050,62;11884,200; 2344,700;28925,600;35,88855
1055,12;12078,600; 2300,600;29808,600;35,54602
1059,62;12331,400; 2304,000;30750,500;35,25003
1064,10;12685,700; 2352,400;31934,300;34,93116
1068,59;12934,600; 2395,400;32879,900;34,57232
1073,07;13174,300; 2329,700;33988,100;34,25505
1077,54;13376,400; 2333,200;34909,400;33,89960
1082,01;13669,100; 2383,100;36084,400;33,48832
1086,48;13863,200; 2367,300;37013,200;33,18113
1090,94;13943,000; 2303,100;37697,100;32,88665
1095,39;14352,900; 2435,000;38991,300;32,60149
1099,85;14561,600; 2333,800;40179,000;32,31004
1104,29;14755,200; 2343,900;41108,400;32,01718
1108,73;14888,100; 2303,100;42037,300;31,67297
1113,17;15034,100; 2407,700;42761,500;31,28925
1117,61;15025,800; 2355,500;43454,900;30,82843
1122,03;15025,200; 2409,900;44116,600;30,24766
1126,46;14865,300; 2310,600;44683,800;29,62887
1130,88;14687,500; 2301,200;45196,100;28,87593
1135,29;14591,800; 2423,100;45857,400;28,01634
1139,70;14338,400; 2288,100;46461,700;27,27942
1144,11;14350,000; 2306,000;47061,800;26,91048
1148,51;14587,400; 2313,600;47677,600;27,05626
1152,90;14886,600; 2332,800;47946,200;27,52218
1157,29;15189,100; 2292,900;48421,700;27,95694
1161,68;15338,100; 2313,100;48619,300;28,12798
1166,06;15345,400; 2309,600;48732,900;28,08030
1170,44;15269,900; 2366,100;48547,000;27,94185
1174,81;14913,500; 2318,600;47745,300;27,72576
1179,18;14747,700; 2329,700;47463,900;27,51350
1183,54;14524,300; 2345,800;47060,900;27,23577
1187,90;14352,000; 2377,500;46950,700;26,86480
1192,25;13976,200; 2344,700;46149,700;26,55290
1196,60;13707,400; 2296,300;45763,400;26,25227
1200,94;13511,800; 2354,600;45323,500;25,96576
1205,28;13197,400; 2332,300;44562,200;25,72845
1209,62;13029,300; 2337,500;44056,300;25,62825
1213,95;12955,800; 2380,000;43765,500;25,55436
1218,27;12715,300; 2311,400;43022,100;25,55569
1222,59;12536,400; 2400,700;42056,700;25,55906
1226,91;12380,900; 2335,900;41649,600;25,55089
1231,22;12119,200; 2314,200;40767,800;25,49826
1235,52;11829,500; 2271,300;39901,100;25,40061
1239,82;11688,900; 2322,400;39388,100;25,26999
1244,12;11396,600; 2318,100;38438,000;25,13434
1248,41;11232,800; 2354,100;37852,300;25,01169
1252,70;10890,700; 2253,500;37010,900;24,84996
1256,98;10793,100; 2299,300;36667,700;24,71398
1261,26;10669,200; 2367,800;36177,100;24,55360
1265,53;10300,800; 2238,400;35319,900;24,37133
1269,80;10205,600; 2285,700;34968,200;24,23285
1274,06;10049,700; 2342,500;34372,200;24,06267
1278,32; 9827,200; 2321,300;33766,300;23,86993
1282,57; 9689,300; 2318,100;33423,400;23,69757
1286,82; 9476,700; 2307,600;32829,200;23,48861
1291,06; 9320,500; 2356,700;32275,900;23,27535
1295,30; 9167,800; 2338,100;31892,600;23,10883
1299,53; 9056,600; 2338,200;31647,500;22,92242
1303,76; 8857,900; 2323,600;31079,700;22,72318
1307,99; 8738,600; 2367,800;30595,000;22,56972
1312,20; 8557,700; 2359,900;30024,100;22,40368
1316,42; 8230,500; 2280,800;29032,600;22,24037
1320,63; 8076,700; 2300,900;28458,500;22,08077
1324,83; 7849,900; 2245,000;27777,100;21,95237
1329,03; 7728,300; 2317,800;27170,400;21,77036
1333,23; 7554,600; 2274,500;26672,500;21,64153
1337,42; 7474,200; 2337,300;26255,200;21,47722
1341,60; 7231,900; 2270,000;25620,600;21,24956
1345,78; 7128,800; 2322,700;25115,000;21,08651
1349,96; 6899,500; 2241,600;24490,500;20,93542
1354,13; 6736,600; 2280,700;23745,200;20,75939
1358,29; 6544,300; 2244,300;23082,400;20,63528
1362,46; 6415,100; 2319,600;22366,700;20,42939
1366,61; 6262,500; 2323,300;21817,100;20,20745
1370,76; 6049,200; 2261,900;21157,200;20,04361
1374,91; 5974,500; 2372,400;20568,000;19,79654
1379,05; 5718,400; 2274,100;19879,800;19,56355
1383,18; 5767,900; 2400,400;19767,200;19,39045
1387,32; 5582,700; 2240,200;19676,200;19,17011
1391,44; 5606,700; 2273,200;19905,300;18,90586
1395,56; 5752,200; 2416,900;20153,000;18,80515
1399,68; 5574,000; 2211,300;20249,800;18,64179
1403,79; 5648,700; 2272,300;20517,600;18,50559
1407,90; 5580,400; 2245,600;20456,300;18,31231
1412,00; 5609,100; 2271,700;20615,900;18,19322
1416,10; 5626,600; 2318,300;20574,800;18,12122
1420,19; 5543,600; 2266,200;20394,400;18,07902
1424,27; 5527,900; 2289,200;20322,000;17,96005
1428,36; 5495,700; 2300,300;20186,500;17,86517
1432,43; 5481,200; 2322,800;20034,000;17,83278
1436,50; 5364,600; 2262,400;19772,900;17,71623
1440,57; 5399,700; 2312,900;19797,100;17,65480
1444,63; 5311,700; 2279,300;19549,200;17,55887
1448,69; 5228,500; 2235,800;19361,400;17,47501
1452,74; 5241,400; 2272,400;19303,800;17,43251
1456,79; 5161,300; 2232,800;19131,100;17,33015
1460,83; 5151,300; 2263,600;18961,800;17,29348
1464,87; 5173,400; 2350,200;18781,300;17,18205
1468,90; 5125,300; 2310,200;18791,500;17,08057
1472,93; 5073,300; 2306,900;18491,800;17,09248
1476,95; 5030,000; 2315,800;18328,800;16,94998
1480,96; 4956,300; 2282,900;18145,100;16,85390
1484,98; 4936,700; 2291,100;18038,800;16,79991
1488,98; 4895,900; 2297,500;17808,200;16,75231
1492,98; 4859,600; 2311,900;17607,700;16,65621
1496,98; 4793,000; 2283,500;17361,700;16,64323
1500,97; 4789,700; 2313,000;17233,100;16,59975
1504,96; 4677,500; 2226,000;17033,400;16,55591
1508,94; 4731,800; 2304,800;17050,500;16,45904
1512,92; 4642,800; 2244,700;16883,900;16,38136
1516,89; 4622,300; 2245,000;16798,700;16,33468
1520,85; 4602,600; 2249,200;16740,000;16,24065
1524,81; 4654,900; 2344,200;16642,100;16,16111
1528,77; 4522,800; 2238,800;16473,000;16,04586
1532,72; 4511,300; 2252,300;16334,200;16,04187
1536,67; 4547,700; 2346,800;16198,700;15,88880
1540,61; 4420,100; 2261,900;15919,100;15,80265
1544,54; 4430,400; 2298,100;15815,100;15,77495
1548,47; 4326,600; 2230,000;15593,800;15,68865
1552,40; 4332,000; 2281,600;15410,700;15,61722
1556,32; 4297,200; 2276,600;15285,000;15,53304
1560,23; 4240,000; 2270,100;14999,600;15,47508
1564,15; 4229,400; 2284,800;14941,900;15,36371
1568,05; 4172,800; 2254,700;14763,000;15,33462
1571,95; 4173,000; 2299,800;14583,200;15,24985
1575,84; 4099,900; 2264,700;14396,200;15,12756
1579,73; 4077,700; 2278,600;14216,200;15,07087
1583,62; 4041,500; 2291,000;14037,500;14,90231
1587,50; 3953,200; 2227,300;13824,900;14,88153
1591,37; 4024,500; 2341,500;13765,300;14,73240
1595,24; 3935,600; 2290,900;13552,200;14,60489
1599,11; 3819,900; 2218,500;13299,400;14,45189
1602,96; 3794,400; 2233,800;13148,300;14,29841
1606,82; 3717,600; 2199,200;12931,900;14,14742
1610,67; 3721,100; 2259,900;12768,200;13,90520
1614,51; 3681,100; 2253,600;12662,100;13,71475
1618,35; 3576,900; 2200,500;12443,200;13,43786
1622,18; 3576,200; 2259,000;12320,000;13,09214
1626,01; 3522,300; 2261,500;12204,900;12,67977
1629,83; 3468,900; 2264,200;12060,300;12,29775
1633,65; 3434,900; 2285,600;11926,300;11,92133
1637,46; 3322,900; 2232,700;11710,000;11,50328
1641,27; 3291,600; 2240,500;11611,900;11,21604
1645,07; 3230,600; 2223,100;11460,600;10,90663
1648,86; 3220,200; 2252,200;11293,600;10,70631
1652,66; 3176,400; 2239,700;11231,400;10,41738
1656,44; 3111,200; 2248,900;11068,200; 9,77742
1660,22; 3073,900; 2279,900;10946,100; 9,16203
1664,00; 3014,300; 2293,300;10899,400; 8,37778
1667,77; 2910,900; 2255,400;10706,100; 7,75675
1671,53; 2877,100; 2267,200;10535,100; 7,37672
1675,29; 2809,400; 2218,100;10422,700; 7,20693
1679,05; 2849,900; 2268,300;10347,700; 7,19855
1682,80; 2846,300; 2250,400;10217,700; 7,47932
1686,54; 2898,500; 2284,500;10131,800; 7,82435
1690,28; 2902,400; 2278,500;10016,500; 8,06281
1694,01; 2862,200; 2220,600; 9797,600; 8,46773
1697,74; 2881,100; 2222,200; 9685,200; 8,82889
1701,46; 2939,900; 2264,100; 9639,900; 9,16240
1705,18; 2930,300; 2239,900; 9483,800; 9,53078
1708,89; 2871,400; 2178,500; 9321,400; 9,70054
1712,60; 2953,600; 2263,700; 9310,100; 9,79082
1716,30; 2980,500; 2296,000; 9229,900; 9,87179
1720,00; 2962,200; 2272,600; 9164,500;10,00595
1723,69; 2957,700; 2274,100; 9040,800;10,10241
1727,38; 2877,500; 2189,500; 8867,100;10,30310
1731,06; 2952,500; 2257,500; 8834,400;10,56729
1734,73; 2933,800; 2236,800; 8714,100;10,76066
1738,40; 2918,000; 2214,400; 8628,400;10,96975
1742,07; 2979,500; 2286,100; 8625,700;10,93760
1745,73; 2926,500; 2245,800; 8533,600;10,82573
1749,38; 2945,500; 2278,500; 8445,700;10,81528

