kl204-2
Integration time [ms]:  15,000
Averaging Nr. [scans]: 10
Smoothing Nr. [pixels]: 0
Data measured with spectrometer [name]: 1204091U1
Wave   ;Sample   ;Dark     ;Reference;Reflectance
[nm]   ;[counts] ;[counts] ;[counts] ;[%]

1014,48; 8537,700; 2348,500;19637,500;35,79848
1019,01; 8996,500; 2352,700;20829,700;35,95714
1023,54; 9449,700; 2377,000;21962,200;36,11247
1028,07; 9849,100; 2352,700;23028,700;36,25653
1032,59;10294,600; 2345,300;24165,800;36,43042
1037,10;10850,000; 2317,300;25614,800;36,62496
1041,62;11341,100; 2350,000;26799,400;36,77432
1046,12;11928,400; 2427,500;28080,800;37,03578
1050,62;12257,100; 2344,700;28925,600;37,29144
1055,12;12630,600; 2300,600;29808,600;37,55271
1059,62;13062,200; 2304,000;30750,500;37,81906
1064,10;13643,600; 2352,400;31934,300;38,16929
1068,59;14113,100; 2395,400;32879,900;38,43822
1073,07;14598,400; 2329,700;33988,100;38,75338
1077,54;15036,200; 2333,200;34909,400;38,99473
1082,01;15590,800; 2383,100;36084,400;39,19048
1086,48;16030,900; 2367,300;37013,200;39,43786
1090,94;16331,300; 2303,100;37697,100;39,63440
1095,39;16989,800; 2435,000;38991,300;39,81475
1099,85;17470,800; 2333,800;40179,000;39,99715
1104,29;17926,000; 2343,900;41108,400;40,19683
1108,73;18354,700; 2303,100;42037,300;40,39744
1113,17;18799,400; 2407,700;42761,500;40,61997
1117,61;19152,800; 2355,500;43454,900;40,86994
1122,03;19557,300; 2409,900;44116,600;41,11426
1126,46;19844,800; 2310,600;44683,800;41,38040
1130,88;20136,100; 2301,200;45196,100;41,57814
1135,29;20533,900; 2423,100;45857,400;41,69700
1139,70;20718,400; 2288,100;46461,700;41,72243
1144,11;20932,800; 2306,000;47061,800;41,61874
1148,51;21110,900; 2313,600;47677,600;41,43660
1152,90;21134,500; 2332,800;47946,200;41,21969
1157,29;21162,600; 2292,900;48421,700;40,90655
1161,68;21001,900; 2313,100;48619,300;40,35917
1166,06;20767,700; 2309,600;48732,900;39,76042
1170,44;20608,800; 2366,100;48547,000;39,50269
1174,81;20152,200; 2318,600;47745,300;39,25797
1179,18;19788,100; 2329,700;47463,900;38,68109
1183,54;19226,900; 2345,800;47060,900;37,75257
1187,90;18772,900; 2377,500;46950,700;36,78309
1192,25;18025,400; 2344,700;46149,700;35,79660
1196,60;17264,300; 2296,300;45763,400;34,43524
1200,94;16485,700; 2354,600;45323,500;32,88681
1205,28;15654,300; 2332,300;44562,200;31,54637
1209,62;15150,400; 2337,500;44056,300;30,71253
1213,95;15146,200; 2380,000;43765,500;30,84704
1218,27;15436,400; 2311,400;43022,100;32,23968
1222,59;16188,400; 2400,700;42056,700;34,76826
1226,91;17079,900; 2335,900;41649,600;37,50347
1231,22;17603,000; 2314,200;40767,800;39,75909
1235,52;17857,200; 2271,300;39901,100;41,41903
1239,82;18105,900; 2322,400;39388,100;42,58250
1244,12;18047,400; 2318,100;38438,000;43,54746
1248,41;18101,500; 2354,100;37852,300;44,36112
1252,70;17887,200; 2253,500;37010,900;44,97949
1256,98;17946,400; 2299,300;36667,700;45,52758
1261,26;17921,000; 2367,800;36177,100;46,00273
1265,53;17576,800; 2238,400;35319,900;46,36549
1269,80;17569,100; 2285,700;34968,200;46,76325
1274,06;17419,200; 2342,500;34372,200;47,07100
1278,32;17204,300; 2321,300;33766,300;47,33026
1282,57;17123,100; 2318,100;33423,400;47,59639
1286,82;16904,700; 2307,600;32829,200;47,82547
1291,06;16731,200; 2356,700;32275,900;48,04440
1295,30;16615,400; 2338,100;31892,600;48,30838
1299,53;16552,700; 2338,200;31647,500;48,49826
1303,76;16329,900; 2323,600;31079,700;48,70723
1307,99;16196,500; 2367,800;30595,000;48,99069
1312,20;15979,500; 2359,900;30024,100;49,23186
1316,42;15510,000; 2280,800;29032,600;49,45163
1320,63;15296,300; 2300,900;28458,500;49,68116
1324,83;14995,200; 2245,000;27777,100;49,93792
1329,03;14768,000; 2317,800;27170,400;50,09617
1333,23;14532,600; 2274,500;26672,500;50,24223
1337,42;14397,800; 2337,300;26255,200;50,42458
1341,60;14061,300; 2270,000;25620,600;50,49678
1345,78;13843,700; 2322,700;25115,000;50,54777
1349,96;13477,000; 2241,600;24490,500;50,49868
1354,13;13094,900; 2280,700;23745,200;50,38179
1358,29;12697,800; 2244,300;23082,400;50,16532
1362,46;12286,900; 2319,600;22366,700;49,71941
1366,61;11877,600; 2323,300;21817,100;49,01199
1370,76;11379,300; 2261,900;21157,200;48,25221
1374,91;10993,000; 2372,400;20568,000;47,37739
1379,05;10463,500; 2274,100;19879,800;46,51562
1383,18;10292,300; 2400,400;19767,200;45,44245
1387,32; 9945,500; 2240,200;19676,200;44,19190
1391,44; 9809,800; 2273,200;19905,300;42,74363
1395,56;10002,300; 2416,900;20153,000;42,76814
1399,68;10163,900; 2211,300;20249,800;44,08681
1403,79;10350,600; 2272,300;20517,600;44,27606
1407,90;10241,700; 2245,600;20456,300;43,90880
1412,00;10226,800; 2271,700;20615,900;43,36575
1416,10;10203,300; 2318,300;20574,800;43,19010
1420,19;10190,400; 2266,200;20394,400;43,71201
1424,27;10265,100; 2289,200;20322,000;44,22996
1428,36;10315,000; 2300,300;20186,500;44,80941
1432,43;10366,100; 2322,800;20034,000;45,41364
1436,50;10306,900; 2262,400;19772,900;45,94101
1440,57;10467,200; 2312,900;19797,100;46,63811
1444,63;10488,200; 2279,300;19549,200;47,53299
1448,69;10508,100; 2235,800;19361,400;48,30371
1452,74;10617,300; 2272,400;19303,800;48,99715
1456,79;10615,900; 2232,800;19131,100;49,60913
1460,83;10645,100; 2263,600;18961,800;50,19403
1464,87;10699,100; 2350,200;18781,300;50,81157
1468,90;10796,900; 2310,200;18791,500;51,49290
1472,93;10735,400; 2306,900;18491,800;52,07632
1476,95;10727,900; 2315,800;18328,800;52,53294
1480,96;10681,300; 2282,900;18145,100;52,94600
1484,98;10677,200; 2291,100;18038,800;53,25286
1488,98;10608,000; 2297,500;17808,200;53,57914
1492,98;10548,800; 2311,900;17607,700;53,85073
1496,98;10443,400; 2283,500;17361,700;54,11720
1500,97;10416,300; 2313,000;17233,100;54,31130
1504,96;10294,100; 2226,000;17033,400;54,48695
1508,94;10352,300; 2304,800;17050,500;54,57523
1512,92;10244,900; 2244,700;16883,900;54,64916
1516,89;10215,300; 2245,000;16798,700;54,76477
1520,85;10193,500; 2249,200;16740,000;54,82306
1524,81;10193,200; 2344,200;16642,100;54,89617
1528,77;10057,000; 2238,800;16473,000;54,92546
1532,72;10010,100; 2252,300;16334,200;55,09058
1536,67; 9981,800; 2346,800;16198,700;55,11879
1540,61; 9801,300; 2261,900;15919,100;55,20458
1544,54; 9808,900; 2298,100;15815,100;55,56558
1548,47; 9727,400; 2230,000;15593,800;56,10231
1552,40; 9694,200; 2281,600;15410,700;56,45932
1556,32; 9665,800; 2276,600;15285,000;56,80330
1560,23; 9518,500; 2270,100;14999,600;56,94175
1564,15; 9514,800; 2284,800;14941,900;57,12209
1568,05; 9423,200; 2254,700;14763,000;57,30995
1571,95; 9351,400; 2299,800;14583,200;57,40756
1575,84; 9254,100; 2264,700;14396,200;57,61365
1579,73; 9180,900; 2278,600;14216,200;57,81983
1583,62; 9092,800; 2291,000;14037,500;57,90491
1587,50; 8959,900; 2227,300;13824,900;58,05167
1591,37; 8987,100; 2341,500;13765,300;58,17329
1595,24; 8849,700; 2290,900;13552,200;58,24194
1599,11; 8699,000; 2218,500;13299,400;58,48352
1602,96; 8618,200; 2233,800;13148,300;58,49466
1606,82; 8491,000; 2199,200;12931,900;58,62271
1610,67; 8415,100; 2259,900;12768,200;58,57465
1614,51; 8357,700; 2253,600;12662,100;58,64534
1618,35; 8213,400; 2200,500;12443,200;58,70425
1622,18; 8161,400; 2259,000;12320,000;58,66614
1626,01; 8097,100; 2261,500;12204,900;58,68818
1629,83; 8009,600; 2264,200;12060,300;58,64987
1633,65; 7932,200; 2285,600;11926,300;58,57044
1637,46; 7776,700; 2232,700;11710,000;58,49767
1641,27; 7700,900; 2240,500;11611,900;58,26664
1645,07; 7596,700; 2223,100;11460,600;58,17158
1648,86; 7484,600; 2252,200;11293,600;57,87157
1652,66; 7412,000; 2239,700;11231,400;57,52305
1656,44; 7290,300; 2248,900;11068,200;57,16327
1660,22; 7193,700; 2279,900;10946,100;56,70075
1664,00; 7113,500; 2293,300;10899,400;56,00911
1667,77; 6921,600; 2255,400;10706,100;55,21673
1671,53; 6751,400; 2267,200;10535,100;54,23626
1675,29; 6560,800; 2218,100;10422,700;52,93006
1679,05; 6418,300; 2268,300;10347,700;51,36520
1682,80; 6196,300; 2250,400;10217,700;49,52619
1686,54; 6017,100; 2284,500;10131,800;47,56540
1690,28; 5771,100; 2278,500;10016,500;45,13569
1694,01; 5432,500; 2220,600; 9797,600;42,39013
1697,74; 5148,500; 2222,200; 9685,200;39,21077
1701,46; 4873,600; 2264,100; 9639,900;35,37921
1705,18; 4488,900; 2239,900; 9483,800;31,04681
1708,89; 4065,000; 2178,500; 9321,400;26,41084
1712,60; 3866,800; 2263,700; 9310,100;22,75062
1716,30; 3685,400; 2296,000; 9229,900;20,03779
1720,00; 3517,800; 2272,600; 9164,500;18,06759
1723,69; 3379,300; 2274,100; 9040,800;16,33292
1727,38; 3209,900; 2189,500; 8867,100;15,28094
1731,06; 3282,100; 2257,500; 8834,400;15,57877
1734,73; 3418,900; 2236,800; 8714,100;18,24989
1738,40; 3631,000; 2214,400; 8628,400;22,08606
1742,07; 3877,500; 2286,100; 8625,700;25,10253
1745,73; 3972,500; 2245,800; 8533,600;27,46112
1749,38; 4082,700; 2278,500; 8445,700;29,25477

