yellowsqueezebottle
Integration time [ms]:  15,000
Averaging Nr. [scans]: 10
Smoothing Nr. [pixels]: 0
Data measured with spectrometer [name]: 1204091U1
Wave   ;Sample   ;Dark     ;Reference;Reflectance
[nm]   ;[counts] ;[counts] ;[counts] ;[%]

1014,48; 4289,100; 2348,500;19637,500;11,22448
1019,01; 4411,500; 2352,700;20829,700;11,14250
1023,54; 4552,000; 2377,000;21962,200;11,10532
1028,07; 4636,400; 2352,700;23028,700;11,04517
1032,59; 4749,200; 2345,300;24165,800;11,01670
1037,10; 4877,800; 2317,300;25614,800;10,99045
1041,62; 5030,900; 2350,000;26799,400;10,96510
1046,12; 5238,100; 2427,500;28080,800;10,95610
1050,62; 5259,800; 2344,700;28925,600;10,96690
1055,12; 5321,600; 2300,600;29808,600;10,98226
1059,62; 5431,800; 2304,000;30750,500;10,99538
1064,10; 5622,500; 2352,400;31934,300;11,05439
1068,59; 5769,400; 2395,400;32879,900;11,06792
1073,07; 5853,000; 2329,700;33988,100;11,12912
1077,54; 5966,100; 2333,200;34909,400;11,15201
1082,01; 6141,400; 2383,100;36084,400;11,15180
1086,48; 6250,000; 2367,300;37013,200;11,20681
1090,94; 6272,600; 2303,100;37697,100;11,21518
1095,39; 6543,500; 2435,000;38991,300;11,23883
1099,85; 6595,400; 2333,800;40179,000;11,26061
1104,29; 6723,000; 2343,900;41108,400;11,29668
1108,73; 6801,400; 2303,100;42037,300;11,32098
1113,17; 7004,900; 2407,700;42761,500;11,39224
1117,61; 7068,300; 2355,500;43454,900;11,46683
1122,03; 7205,700; 2409,900;44116,600;11,49887
1126,46; 7214,700; 2310,600;44683,800;11,57359
1130,88; 7298,300; 2301,200;45196,100;11,64964
1135,29; 7498,400; 2423,100;45857,400;11,68500
1139,70; 7461,700; 2288,100;46461,700;11,71197
1144,11; 7534,500; 2306,000;47061,800;11,68228
1148,51; 7582,800; 2313,600;47677,600;11,61538
1152,90; 7603,900; 2332,800;47946,200;11,55603
1157,29; 7586,100; 2292,900;48421,700;11,47483
1161,68; 7560,300; 2313,100;48619,300;11,33153
1166,06; 7508,600; 2309,600;48732,900;11,19912
1170,44; 7503,800; 2366,100;48547,000;11,12516
1174,81; 7320,800; 2318,600;47745,300;11,01159
1179,18; 7230,400; 2329,700;47463,900;10,85806
1183,54; 7082,000; 2345,800;47060,900;10,59195
1187,90; 6975,700; 2377,500;46950,700;10,31606
1192,25; 6734,100; 2344,700;46149,700;10,02032
1196,60; 6495,200; 2296,300;45763,400; 9,65995
1200,94; 6333,200; 2354,600;45323,500; 9,25925
1205,28; 6094,100; 2332,300;44562,200; 8,90791
1209,62; 5986,900; 2337,500;44056,300; 8,74761
1213,95; 6034,700; 2380,000;43765,500; 8,83087
1218,27; 6114,900; 2311,400;43022,100; 9,34275
1222,59; 6418,800; 2400,700;42056,700;10,13239
1226,91; 6660,200; 2335,900;41649,600;10,99947
1231,22; 6830,100; 2314,200;40767,800;11,74376
1235,52; 6914,000; 2271,300;39901,100;12,33783
1239,82; 7055,600; 2322,400;39388,100;12,76976
1244,12; 7066,400; 2318,100;38438,000;13,14594
1248,41; 7139,200; 2354,100;37852,300;13,47984
1252,70; 7034,600; 2253,500;37010,900;13,75563
1256,98; 7121,700; 2299,300;36667,700;14,03149
1261,26; 7193,500; 2367,800;36177,100;14,27329
1265,53; 7032,500; 2238,400;35319,900;14,49179
1269,80; 7089,700; 2285,700;34968,200;14,69900
1274,06; 7102,400; 2342,500;34372,200;14,86089
1278,32; 7058,400; 2321,300;33766,300;15,06472
1282,57; 7053,700; 2318,100;33423,400;15,22442
1286,82; 7005,900; 2307,600;32829,200;15,39336
1291,06; 7022,200; 2356,700;32275,900;15,59367
1295,30; 7005,300; 2338,100;31892,600;15,79184
1299,53; 7037,200; 2338,200;31647,500;16,03245
1303,76; 6989,100; 2323,600;31079,700;16,22438
1307,99; 7014,900; 2367,800;30595,000;16,46320
1312,20; 6971,200; 2359,900;30024,100;16,66884
1316,42; 6797,300; 2280,800;29032,600;16,88298
1320,63; 6774,100; 2300,900;28458,500;17,10096
1324,83; 6672,200; 2245,000;27777,100;17,33974
1329,03; 6683,800; 2317,800;27170,400;17,56758
1333,23; 6615,800; 2274,500;26672,500;17,79367
1337,42; 6643,500; 2337,300;26255,200;18,00409
1341,60; 6516,800; 2270,000;25620,600;18,18711
1345,78; 6508,400; 2322,700;25115,000;18,36454
1349,96; 6362,900; 2241,600;24490,500;18,52361
1354,13; 6280,900; 2280,700;23745,200;18,63635
1358,29; 6150,500; 2244,300;23082,400;18,74547
1362,46; 6071,400; 2319,600;22366,700;18,71493
1366,61; 5941,900; 2323,300;21817,100;18,56283
1370,76; 5723,700; 2261,900;21157,200;18,32096
1374,91; 5644,000; 2372,400;20568,000;17,98017
1379,05; 5374,100; 2274,100;19879,800;17,60793
1383,18; 5390,000; 2400,400;19767,200;17,21446
1387,32; 5168,200; 2240,200;19676,200;16,79284
1391,44; 5145,300; 2273,200;19905,300;16,28904
1395,56; 5346,700; 2416,900;20153,000;16,51885
1399,68; 5299,600; 2211,300;20249,800;17,12060
1403,79; 5422,200; 2272,300;20517,600;17,26417
1407,90; 5361,400; 2245,600;20456,300;17,10972
1412,00; 5375,800; 2271,700;20615,900;16,92142
1416,10; 5421,400; 2318,300;20574,800;16,99723
1420,19; 5414,300; 2266,200;20394,400;17,36576
1424,27; 5477,100; 2289,200;20322,000;17,67834
1428,36; 5544,700; 2300,300;20186,500;18,13912
1432,43; 5606,600; 2322,800;20034,000;18,54081
1436,50; 5581,200; 2262,400;19772,900;18,95320
1440,57; 5696,200; 2312,900;19797,100;19,35061
1444,63; 5733,900; 2279,300;19549,200;20,00359
1448,69; 5744,700; 2235,800;19361,400;20,48921
1452,74; 5847,300; 2272,400;19303,800;20,99005
1456,79; 5853,600; 2232,800;19131,100;21,42701
1460,83; 5915,600; 2263,600;18961,800;21,87062
1464,87; 6017,200; 2350,200;18781,300;22,31743
1468,90; 6082,400; 2310,200;18791,500;22,88776
1472,93; 6093,300; 2306,900;18491,800;23,39465
1476,95; 6121,800; 2315,800;18328,800;23,76819
1480,96; 6111,400; 2282,900;18145,100;24,13600
1484,98; 6155,100; 2291,100;18038,800;24,53692
1488,98; 6147,400; 2297,500;17808,200;24,82093
1492,98; 6166,900; 2311,900;17607,700;25,20300
1496,98; 6126,700; 2283,500;17361,700;25,48845
1500,97; 6156,800; 2313,000;17233,100;25,76256
1504,96; 6071,800; 2226,000;17033,400;25,97215
1508,94; 6165,500; 2304,800;17050,500;26,18187
1512,92; 6105,300; 2244,700;16883,900;26,37166
1516,89; 6119,500; 2245,000;16798,700;26,62210
1520,85; 6132,900; 2249,200;16740,000;26,80114
1524,81; 6212,700; 2344,200;16642,100;27,05642
1528,77; 6115,500; 2238,800;16473,000;27,23511
1532,72; 6124,500; 2252,300;16334,200;27,49771
1536,67; 6185,900; 2346,800;16198,700;27,71533
1540,61; 6082,300; 2261,900;15919,100;27,97352
1544,54; 6143,100; 2298,100;15815,100;28,44566
1548,47; 6090,900; 2230,000;15593,800;28,89073
1552,40; 6133,700; 2281,600;15410,700;29,34017
1556,32; 6132,000; 2276,600;15285,000;29,63777
1560,23; 6073,700; 2270,100;14999,600;29,88020
1564,15; 6117,000; 2284,800;14941,900;30,27708
1568,05; 6070,000; 2254,700;14763,000;30,50215
1571,95; 6086,000; 2299,800;14583,200;30,82371
1575,84; 6046,800; 2264,700;14396,200;31,17586
1579,73; 6032,300; 2278,600;14216,200;31,44434
1583,62; 6015,000; 2291,000;14037,500;31,70306
1587,50; 5940,800; 2227,300;13824,900;32,01956
1591,37; 6032,500; 2341,500;13765,300;32,30974
1595,24; 5944,200; 2290,900;13552,200;32,44119
1599,11; 5867,500; 2218,500;13299,400;32,93054
1602,96; 5842,900; 2233,800;13148,300;33,06702
1606,82; 5767,400; 2199,200;12931,900;33,24606
1610,67; 5788,200; 2259,900;12768,200;33,57632
1614,51; 5763,600; 2253,600;12662,100;33,72244
1618,35; 5664,200; 2200,500;12443,200;33,81628
1622,18; 5675,400; 2259,000;12320,000;33,95686
1626,01; 5668,000; 2261,500;12204,900;34,25891
1629,83; 5632,400; 2264,200;12060,300;34,38307
1633,65; 5610,600; 2285,600;11926,300;34,48920
1637,46; 5506,600; 2232,700;11710,000;34,54465
1641,27; 5480,700; 2240,500;11611,900;34,57541
1645,07; 5435,200; 2223,100;11460,600;34,77240
1648,86; 5380,700; 2252,200;11293,600;34,60194
1652,66; 5344,200; 2239,700;11231,400;34,52629
1656,44; 5284,100; 2248,900;11068,200;34,41543
1660,22; 5242,800; 2279,900;10946,100;34,18915
1664,00; 5209,300; 2293,300;10899,400;33,88294
1667,77; 5077,600; 2255,400;10706,100;33,39605
1671,53; 4960,600; 2267,200;10535,100;32,57659
1675,29; 4824,200; 2218,100;10422,700;31,76389
1679,05; 4748,400; 2268,300;10347,700;30,69659
1682,80; 4586,900; 2250,400;10217,700;29,32612
1686,54; 4450,200; 2284,500;10131,800;27,59803
1690,28; 4260,400; 2278,500;10016,500;25,61256
1694,01; 3996,900; 2220,600; 9797,600;23,44332
1697,74; 3795,700; 2222,200; 9685,200;21,08401
1701,46; 3616,200; 2264,100; 9639,900;18,33157
1705,18; 3334,200; 2239,900; 9483,800;15,10650
1708,89; 3070,400; 2178,500; 9321,400;12,48653
1712,60; 2996,000; 2263,700; 9310,100;10,39254
1716,30; 2917,400; 2296,000; 9229,900; 8,96177
1720,00; 2824,600; 2272,600; 9164,500; 8,00940
1723,69; 2779,500; 2274,100; 9040,800; 7,46893
1727,38; 2683,600; 2189,500; 8867,100; 7,39937
1731,06; 2780,100; 2257,500; 8834,400; 7,94599
1734,73; 2829,700; 2236,800; 8714,100; 9,15351
1738,40; 2919,900; 2214,400; 8628,400;10,99938
1742,07; 3079,100; 2286,100; 8625,700;12,50868
1745,73; 3104,900; 2245,800; 8533,600;13,66297
1749,38; 3167,100; 2278,500; 8445,700;14,40848

