pswhite
Integration time [ms]:  15,000
Averaging Nr. [scans]: 10
Smoothing Nr. [pixels]: 0
Data measured with spectrometer [name]: 1204091U1
Wave   ;Sample   ;Dark     ;Reference;Reflectance
[nm]   ;[counts] ;[counts] ;[counts] ;[%]

1014,48;13074,300; 2348,500;19637,500;62,03829
1019,01;13800,800; 2352,700;20829,700;61,95865
1023,54;14494,000; 2377,000;21962,200;61,86815
1028,07;15126,400; 2352,700;23028,700;61,78033
1032,59;15816,900; 2345,300;24165,800;61,73827
1037,10;16697,500; 2317,300;25614,800;61,72422
1041,62;17419,600; 2350,000;26799,400;61,63587
1046,12;18219,300; 2427,500;28080,800;61,55855
1050,62;18698,800; 2344,700;28925,600;61,52576
1055,12;19215,200; 2300,600;29808,600;61,48975
1059,62;19789,700; 2304,000;30750,500;61,46872
1064,10;20549,400; 2352,400;31934,300;61,51397
1068,59;21142,500; 2395,400;32879,900;61,49715
1073,07;21821,300; 2329,700;33988,100;61,56849
1077,54;22375,400; 2333,200;34909,400;61,52406
1082,01;23071,500; 2383,100;36084,400;61,38754
1086,48;23585,900; 2367,300;37013,200;61,24419
1090,94;23924,100; 2303,100;37697,100;61,08662
1095,39;24687,200; 2435,000;38991,300;60,87104
1099,85;25258,800; 2333,800;40179,000;60,57571
1104,29;25703,500; 2343,900;41108,400;60,26029
1108,73;26073,500; 2303,100;42037,300;59,82353
1113,17;26330,100; 2407,700;42761,500;59,28165
1117,61;26433,400; 2355,500;43454,900;58,58455
1122,03;26464,100; 2409,900;44116,600;57,67467
1126,46;26286,900; 2310,600;44683,800;56,58364
1130,88;25999,100; 2301,200;45196,100;55,24643
1135,29;25775,100; 2423,100;45857,400;53,76396
1139,70;25496,800; 2288,100;46461,700;52,53975
1144,11;25623,800; 2306,000;47061,800;52,10006
1148,51;26229,700; 2313,600;47677,600;52,72044
1152,90;26951,200; 2332,800;47946,200;53,97186
1157,29;27737,600; 2292,900;48421,700;55,16012
1161,68;28164,000; 2313,100;48619,300;55,82600
1166,06;28323,700; 2309,600;48732,900;56,03673
1170,44;28239,400; 2366,100;48547,000;56,02598
1174,81;27711,600; 2318,600;47745,300;55,89884
1179,18;27494,600; 2329,700;47463,900;55,75572
1183,54;27125,400; 2345,800;47060,900;55,41663
1187,90;26864,700; 2377,500;46950,700;54,93705
1192,25;26220,700; 2344,700;46149,700;54,50519
1196,60;25825,700; 2296,300;45763,400;54,13152
1200,94;25498,000; 2354,600;45323,500;53,86082
1205,28;25010,700; 2332,300;44562,200;53,70223
1209,62;24776,100; 2337,500;44056,300;53,78534
1213,95;24735,700; 2380,000;43765,500;54,01819
1218,27;24481,600; 2311,400;43022,100;54,45792
1222,59;24191,600; 2400,700;42056,700;54,94982
1226,91;24107,300; 2335,900;41649,600;55,37866
1231,22;23736,200; 2314,200;40767,800;55,70870
1235,52;23332,900; 2271,300;39901,100;55,97053
1239,82;23107,100; 2322,400;39388,100;56,07529
1244,12;22607,000; 2318,100;38438,000;56,17098
1248,41;22322,600; 2354,100;37852,300;56,25215
1252,70;21816,600; 2253,500;37010,900;56,28470
1256,98;21642,500; 2299,300;36667,700;56,28193
1261,26;21388,300; 2367,800;36177,100;56,25819
1265,53;20819,000; 2238,400;35319,900;56,16614
1269,80;20636,000; 2285,700;34968,200;56,14717
1274,06;20299,100; 2342,500;34372,200;56,06234
1278,32;19908,600; 2321,300;33766,300;55,93035
1282,57;19666,500; 2318,100;33423,400;55,77313
1286,82;19284,700; 2307,600;32829,200;55,62323
1291,06;18940,900; 2356,700;32275,900;55,42996
1295,30;18672,100; 2338,100;31892,600;55,26739
1299,53;18477,800; 2338,200;31647,500;55,06648
1303,76;18096,200; 2323,600;31079,700;54,84958
1307,99;17808,900; 2367,800;30595,000;54,70291
1312,20;17439,300; 2359,900;30024,100;54,50872
1316,42;16800,300; 2280,800;29032,600;54,27485
1320,63;16443,000; 2300,900;28458,500;54,06498
1324,83;16013,200; 2245,000;27777,100;53,92506
1329,03;15665,500; 2317,800;27170,400;53,70746
1333,23;15326,200; 2274,500;26672,500;53,49496
1337,42;15090,400; 2337,300;26255,200;53,32032
1341,60;14654,500; 2270,000;25620,600;53,03718
1345,78;14343,500; 2322,700;25115,000;52,74062
1349,96;13924,100; 2241,600;24490,500;52,50821
1354,13;13499,100; 2280,700;23745,200;52,26490
1358,29;13082,000; 2244,300;23082,400;52,00906
1362,46;12661,500; 2319,600;22366,700;51,58801
1366,61;12294,800; 2323,300;21817,100;51,15216
1370,76;11844,000; 2261,900;21157,200;50,71155
1374,91;11502,300; 2372,400;20568,000;50,17642
1379,05;11019,000; 2274,100;19879,800;49,67085
1383,18;10954,100; 2400,400;19767,200;49,25317
1387,32;10750,000; 2240,200;19676,200;48,80592
1391,44;10802,700; 2273,200;19905,300;48,37484
1395,56;10957,100; 2416,900;20153,000;48,15151
1399,68;10863,000; 2211,300;20249,800;47,96241
1403,79;10968,100; 2272,300;20517,600;47,66049
1407,90;10881,900; 2245,600;20456,300;47,42432
1412,00;10939,300; 2271,700;20615,900;47,24981
1416,10;10938,500; 2318,300;20574,800;47,21716
1420,19;10842,400; 2266,200;20394,400;47,30861
1424,27;10823,800; 2289,200;20322,000;47,32820
1428,36;10768,000; 2300,300;20186,500;47,34208
1432,43;10705,800; 2322,800;20034,000;47,33163
1436,50;10550,700; 2262,400;19772,900;47,33331
1440,57;10579,500; 2312,900;19797,100;47,28040
1444,63;10452,400; 2279,300;19549,200;47,32569
1448,69;10353,900; 2235,800;19361,400;47,40330
1452,74;10350,200; 2272,400;19303,800;47,42887
1456,79;10238,700; 2232,800;19131,100;47,37696
1460,83;10172,200; 2263,600;18961,800;47,36199
1464,87;10117,200; 2350,200;18781,300;47,27012
1468,90;10104,000; 2310,200;18791,500;47,28875
1472,93; 9961,500; 2306,900;18491,800;47,29470
1476,95; 9879,100; 2315,800;18328,800;47,23225
1480,96; 9768,100; 2282,900;18145,100;47,18891
1484,98; 9717,200; 2291,100;18038,800;47,15673
1488,98; 9600,800; 2297,500;17808,200;47,08556
1492,98; 9506,600; 2311,900;17607,700;47,03710
1496,98; 9376,600; 2283,500;17361,700;47,04209
1500,97; 9317,900; 2313,000;17233,100;46,94942
1504,96; 9161,400; 2226,000;17033,400;46,83739
1508,94; 9209,100; 2304,800;17050,500;46,82246
1512,92; 9077,300; 2244,700;16883,900;46,67332
1516,89; 9033,300; 2245,000;16798,700;46,64312
1520,85; 8995,600; 2249,200;16740,000;46,55644
1524,81; 8995,500; 2344,200;16642,100;46,51942
1528,77; 8845,700; 2238,800;16473,000;46,41567
1532,72; 8787,400; 2252,300;16334,200;46,40780
1536,67; 8760,600; 2346,800;16198,700;46,30267
1540,61; 8573,500; 2261,900;15919,100;46,21445
1544,54; 8539,900; 2298,100;15815,100;46,17741
1548,47; 8383,700; 2230,000;15593,800;46,04753
1552,40; 8312,200; 2281,600;15410,700;45,93308
1556,32; 8232,100; 2276,600;15285,000;45,78196
1560,23; 8070,300; 2270,100;14999,600;45,56503
1564,15; 8023,500; 2284,800;14941,900;45,33977
1568,05; 7904,300; 2254,700;14763,000;45,16681
1571,95; 7809,500; 2299,800;14583,200;44,85484
1575,84; 7683,100; 2264,700;14396,200;44,66389
1579,73; 7582,700; 2278,600;14216,200;44,43188
1583,62; 7469,400; 2291,000;14037,500;44,08462
1587,50; 7311,100; 2227,300;13824,900;43,83493
1591,37; 7312,800; 2341,500;13765,300;43,51704
1595,24; 7147,100; 2290,900;13552,200;43,12291
1599,11; 6944,800; 2218,500;13299,400;42,65267
1602,96; 6823,900; 2233,800;13148,300;42,05506
1606,82; 6640,900; 2199,200;12931,900;41,38474
1610,67; 6528,800; 2259,900;12768,200;40,62408
1614,51; 6394,000; 2253,600;12662,100;39,77903
1618,35; 6183,600; 2200,500;12443,200;38,88721
1622,18; 6055,700; 2259,000;12320,000;37,73681
1626,01; 5880,600; 2261,500;12204,900;36,39701
1629,83; 5700,500; 2264,200;12060,300;35,07825
1633,65; 5551,500; 2285,600;11926,300;33,87617
1637,46; 5353,700; 2232,700;11710,000;32,93132
1641,27; 5253,800; 2240,500;11611,900;32,15421
1645,07; 5125,400; 2223,100;11460,600;31,41867
1648,86; 5032,100; 2252,200;11293,600;30,74634
1652,66; 4933,000; 2239,700;11231,400;29,95318
1656,44; 4737,000; 2248,900;11068,200;28,21199
1660,22; 4542,600; 2279,900;10946,100;26,10948
1664,00; 4353,200; 2293,300;10899,400;23,93535
1667,77; 4128,700; 2255,400;10706,100;22,16739
1671,53; 3988,400; 2267,200;10535,100;20,81786
1675,29; 3873,100; 2218,100;10422,700;20,17161
1679,05; 3900,500; 2268,300;10347,700;20,20200
1682,80; 3891,900; 2250,400;10217,700;20,60296
1686,54; 3961,300; 2284,500;10131,800;21,36786
1690,28; 3982,000; 2278,500;10016,500;22,01473
1694,01; 3946,600; 2220,600; 9797,600;22,77946
1697,74; 3992,100; 2222,200; 9685,200;23,71566
1701,46; 4090,900; 2264,100; 9639,900;24,76748
1705,18; 4102,900; 2239,900; 9483,800;25,71819
1708,89; 4037,000; 2178,500; 9321,400;26,01884
1712,60; 4110,300; 2263,700; 9310,100;26,20629
1716,30; 4133,400; 2296,000; 9229,900;26,49880
1720,00; 4109,300; 2272,600; 9164,500;26,65013
1723,69; 4086,500; 2274,100; 9040,800;26,78410
1727,38; 4011,100; 2189,500; 8867,100;27,27926
1731,06; 4088,000; 2257,500; 8834,400;27,83226
1734,73; 4082,000; 2236,800; 8714,100;28,48718
1738,40; 4079,800; 2214,400; 8628,400;29,08326
1742,07; 4132,100; 2286,100; 8625,700;29,11856
1745,73; 4061,400; 2245,800; 8533,600;28,87496
1749,38; 4030,100; 2278,500; 8445,700;28,40187

