abswhite-2
Integration time [ms]:  15,000
Averaging Nr. [scans]: 10
Smoothing Nr. [pixels]: 0
Data measured with spectrometer [name]: 1204091U1
Wave   ;Sample   ;Dark     ;Reference;Reflectance
[nm]   ;[counts] ;[counts] ;[counts] ;[%]

1014,48;14158,600; 2348,500;19637,500;68,30991
1019,01;14871,000; 2352,700;20829,700;67,75072
1023,54;15577,000; 2377,000;21962,200;67,39783
1028,07;16208,900; 2352,700;23028,700;67,01586
1032,59;16889,600; 2345,300;24165,800;66,65429
1037,10;17785,900; 2317,300;25614,800;66,39597
1041,62;18486,200; 2350,000;26799,400;65,99835
1046,12;19255,700; 2427,500;28080,800;65,59858
1050,62;19689,400; 2344,700;28925,600;65,25249
1055,12;20164,300; 2300,600;29808,600;64,94002
1059,62;20686,000; 2304,000;30750,500;64,61955
1064,10;21387,800; 2352,400;31934,300;64,34813
1068,59;21932,900; 2395,400;32879,900;64,08995
1073,07;22541,000; 2329,700;33988,100;63,84182
1077,54;23014,800; 2333,200;34909,400;63,48684
1082,01;23635,200; 2383,100;36084,400;63,06018
1086,48;24066,700; 2367,300;37013,200;62,63194
1090,94;24303,100; 2303,100;37697,100;62,15743
1095,39;24973,900; 2435,000;38991,300;61,65531
1099,85;25452,000; 2333,800;40179,000;61,08621
1104,29;25788,200; 2343,900;41108,400;60,47879
1108,73;26057,100; 2303,100;42037,300;59,78225
1113,17;26209,800; 2407,700;42761,500;58,98354
1117,61;26229,400; 2355,500;43454,900;58,08820
1122,03;26198,000; 2409,900;44116,600;57,03664
1126,46;26004,300; 2310,600;44683,800;55,91671
1130,88;25739,000; 2301,200;45196,100;54,64006
1135,29;25602,900; 2423,100;45857,400;53,36750
1139,70;25423,700; 2288,100;46461,700;52,37427
1144,11;25522,300; 2306,000;47061,800;51,87328
1148,51;25845,300; 2313,600;47677,600;51,87307
1152,90;26125,900; 2332,800;47946,200;52,16252
1157,29;26437,700; 2292,900;48421,700;52,34214
1161,68;26470,200; 2313,100;48619,300;52,16818
1166,06;26312,400; 2309,600;48732,900;51,70421
1170,44;25983,000; 2366,100;48547,000;51,13997
1174,81;25293,800; 2318,600;47745,300;50,57642
1179,18;24926,900; 2329,700;47463,900;50,06669
1183,54;24469,700; 2345,800;47060,900;49,47747
1187,90;24135,500; 2377,500;46950,700;48,81409
1192,25;23497,100; 2344,700;46149,700;48,28764
1196,60;23129,500; 2296,300;45763,400;47,92866
1200,94;22851,100; 2354,600;45323,500;47,70078
1205,28;22442,400; 2332,300;44562,200;47,62052
1209,62;22249,200; 2337,500;44056,300;47,72836
1213,95;22203,600; 2380,000;43765,500;47,89987
1218,27;21919,700; 2311,400;43022,100;48,16498
1222,59;21609,900; 2400,700;42056,700;48,43958
1226,91;21470,400; 2335,900;41649,600;48,67133
1231,22;21100,500; 2314,200;40767,800;48,85446
1235,52;20690,600; 2271,300;39901,100;48,94871
1239,82;20466,900; 2322,400;39388,100;48,95227
1244,12;19978,000; 2318,100;38438,000;48,89244
1248,41;19678,400; 2354,100;37852,300;48,80332
1252,70;19169,400; 2253,500;37010,900;48,66848
1256,98;18976,100; 2299,300;36667,700;48,52364
1261,26;18720,900; 2367,800;36177,100;48,36864
1265,53;18178,700; 2238,400;35319,900;48,18494
1269,80;17978,800; 2285,700;34968,200;48,01683
1274,06;17654,300; 2342,500;34372,200;47,80501
1278,32;17279,300; 2321,300;33766,300;47,56877
1282,57;17023,100; 2318,100;33423,400;47,27490
1286,82;16651,200; 2307,600;32829,200;46,99492
1291,06;16327,400; 2356,700;32275,900;46,69476
1295,30;16053,800; 2338,100;31892,600;46,40816
1299,53;15857,500; 2338,200;31647,500;46,12631
1303,76;15498,500; 2323,600;31079,700;45,81602
1307,99;15222,100; 2367,800;30595,000;45,53870
1312,20;14879,500; 2359,900;30024,100;45,25560
1316,42;14307,900; 2280,800;29032,600;44,95810
1320,63;13976,000; 2300,900;28458,500;44,63368
1324,83;13570,800; 2245,000;27777,100;44,35906
1329,03;13243,100; 2317,800;27170,400;43,96039
1333,23;12916,700; 2274,500;26672,500;43,61915
1337,42;12693,700; 2337,300;26255,200;43,29979
1341,60;12295,600; 2270,000;25620,600;42,93509
1345,78;12012,300; 2322,700;25115,000;42,51260
1349,96;11607,100; 2241,600;24490,500;42,09422
1354,13;11217,500; 2280,700;23745,200;41,63526
1358,29;10832,500; 2244,300;23082,400;41,21393
1362,46;10470,100; 2319,600;22366,700;40,65675
1366,61;10144,400; 2323,300;21817,100;40,12096
1370,76; 9734,800; 2261,900;21157,200;39,54899
1374,91; 9445,900; 2372,400;20568,000;38,87478
1379,05; 9009,700; 2274,100;19879,800;38,25806
1383,18; 8959,100; 2400,400;19767,200;37,76574
1387,32; 8735,100; 2240,200;19676,200;37,24994
1391,44; 8743,500; 2273,200;19905,300;36,69614
1395,56; 8873,500; 2416,900;20153,000;36,40372
1399,68; 8706,700; 2211,300;20249,800;36,00854
1403,79; 8762,800; 2272,300;20517,600;35,57354
1407,90; 8661,600; 2245,600;20456,300;35,23203
1412,00; 8688,900; 2271,700;20615,900;34,98217
1416,10; 8687,700; 2318,300;20574,800;34,88840
1420,19; 8583,000; 2266,200;20394,400;34,84516
1424,27; 8556,500; 2289,200;20322,000;34,75500
1428,36; 8506,100; 2300,300;20186,500;34,69602
1432,43; 8437,100; 2322,800;20034,000;34,52222
1436,50; 8274,000; 2262,400;19772,900;34,33140
1440,57; 8268,400; 2312,900;19797,100;34,06218
1444,63; 8111,700; 2279,300;19549,200;33,77205
1448,69; 7960,800; 2235,800;19361,400;33,42949
1452,74; 7895,000; 2272,400;19303,800;33,01314
1456,79; 7728,500; 2232,800;19131,100;32,52221
1460,83; 7615,100; 2263,600;18961,800;32,04836
1464,87; 7566,800; 2350,200;18781,300;31,74833
1468,90; 7533,300; 2310,200;18791,500;31,69107
1472,93; 7451,300; 2306,900;18491,800;31,78518
1476,95; 7430,600; 2315,800;18328,800;31,94155
1480,96; 7379,200; 2282,900;18145,100;32,12858
1484,98; 7370,200; 2291,100;18038,800;32,25296
1488,98; 7316,600; 2297,500;17808,200;32,35895
1492,98; 7278,900; 2311,900;17607,700;32,47297
1496,98; 7185,900; 2283,500;17361,700;32,51316
1500,97; 7153,800; 2313,000;17233,100;32,44482
1504,96; 7036,700; 2226,000;17033,400;32,48849
1508,94; 7087,000; 2304,800;17050,500;32,43115
1512,92; 6978,000; 2244,700;16883,900;32,33305
1516,89; 6954,600; 2245,000;16798,700;32,36016
1520,85; 6913,100; 2249,200;16740,000;32,18525
1524,81; 6935,500; 2344,200;16642,100;32,11171
1528,77; 6797,300; 2238,800;16473,000;32,02498
1532,72; 6758,800; 2252,300;16334,200;32,00207
1536,67; 6760,200; 2346,800;16198,700;31,86133
1540,61; 6595,200; 2261,900;15919,100;31,72905
1544,54; 6585,400; 2298,100;15815,100;31,71784
1548,47; 6456,300; 2230,000;15593,800;31,62499
1552,40; 6415,200; 2281,600;15410,700;31,48426
1556,32; 6356,400; 2276,600;15285,000;31,36281
1560,23; 6244,000; 2270,100;14999,600;31,21804
1564,15; 6215,200; 2284,800;14941,900;31,05293
1568,05; 6130,700; 2254,700;14763,000;30,98742
1571,95; 6074,300; 2299,800;14583,200;30,72846
1575,84; 5976,800; 2264,700;14396,200;30,59885
1579,73; 5910,900; 2278,600;14216,200;30,42739
1583,62; 5840,100; 2291,000;14037,500;30,21411
1587,50; 5717,600; 2227,300;13824,900;30,09502
1591,37; 5750,600; 2341,500;13765,300;29,84208
1595,24; 5625,700; 2290,900;13552,200;29,61292
1599,11; 5476,600; 2218,500;13299,400;29,40285
1602,96; 5403,500; 2233,800;13148,300;29,04118
1606,82; 5267,300; 2199,200;12931,900;28,58647
1610,67; 5228,100; 2259,900;12768,200;28,24624
1614,51; 5145,100; 2253,600;12662,100;27,78018
1618,35; 4991,500; 2200,500;12443,200;27,24867
1622,18; 4935,900; 2259,000;12320,000;26,60670
1626,01; 4824,700; 2261,500;12204,900;25,77790
1629,83; 4712,200; 2264,200;12060,300;24,98954
1633,65; 4626,900; 2285,600;11926,300;24,28558
1637,46; 4480,200; 2232,700;11710,000;23,71456
1641,27; 4431,800; 2240,500;11611,900;23,38285
1645,07; 4335,700; 2223,100;11460,600;22,86982
1648,86; 4268,000; 2252,200;11293,600;22,29522
1652,66; 4185,700; 2239,700;11231,400;21,64218
1656,44; 4068,300; 2248,900;11068,200;20,62976
1660,22; 3969,600; 2279,900;10946,100;19,49759
1664,00; 3881,800; 2293,300;10899,400;18,45784
1667,77; 3742,800; 2255,400;10706,100;17,60091
1671,53; 3672,800; 2267,200;10535,100;17,00069
1675,29; 3593,900; 2218,100;10422,700;16,76864
1679,05; 3621,600; 2268,300;10347,700;16,75001
1682,80; 3597,800; 2250,400;10217,700;16,91163
1686,54; 3627,700; 2284,500;10131,800;17,11672
1690,28; 3609,400; 2278,500;10016,500;17,19953
1694,01; 3525,700; 2220,600; 9797,600;17,22450
1697,74; 3526,600; 2222,200; 9685,200;17,47823
1701,46; 3563,000; 2264,100; 9639,900;17,61029
1705,18; 3524,200; 2239,900; 9483,800;17,72940
1708,89; 3448,000; 2178,500; 9321,400;17,77289
1712,60; 3515,500; 2263,700; 9310,100;17,76510
1716,30; 3533,600; 2296,000; 9229,900;17,84854
1720,00; 3497,100; 2272,600; 9164,500;17,76723
1723,69; 3482,000; 2274,100; 9040,800;17,85065
1727,38; 3396,800; 2189,500; 8867,100;18,07985
1731,06; 3459,200; 2257,500; 8834,400;18,27153
1734,73; 3427,500; 2236,800; 8714,100;18,38266
1738,40; 3398,600; 2214,400; 8628,400;18,46274
1742,07; 3454,600; 2286,100; 8625,700;18,43176
1745,73; 3391,300; 2245,800; 8533,600;18,21782
1749,38; 3393,900; 2278,500; 8445,700;18,08600

