reference last
Integration time [ms]:  15,000
Averaging Nr. [scans]: 10
Smoothing Nr. [pixels]: 0
Data measured with spectrometer [name]: 1204091U1
Wave   ;Sample   ;Dark     ;Reference;Reflectance
[nm]   ;[counts] ;[counts] ;[counts] ;[%]

1014,48;19145,200; 2348,500;19637,500;97,15252
1019,01;20314,800; 2352,700;20829,700;97,21329
1023,54;21400,000; 2377,000;21962,200;97,12947
1028,07;22432,800; 2352,700;23028,700;97,11791
1032,59;23531,600; 2345,300;24165,800;97,09356
1037,10;24939,800; 2317,300;25614,800;97,10269
1041,62;26079,300; 2350,000;26799,400;97,05473
1046,12;27295,300; 2427,500;28080,800;96,93802
1050,62;28105,900; 2344,700;28925,600;96,91621
1055,12;28952,900; 2300,600;29808,600;96,88927
1059,62;29877,900; 2304,000;30750,500;96,93249
1064,10;31041,500; 2352,400;31934,300;96,98194
1068,59;31989,400; 2395,400;32879,900;97,07884
1073,07;33109,500; 2329,700;33988,100;97,22475
1077,54;34021,800; 2333,200;34909,400;97,27531
1082,01;35158,400; 2383,100;36084,400;97,25233
1086,48;36028,500; 2367,300;37013,200;97,15782
1090,94;36668,900; 2303,100;37697,100;97,09499
1095,39;37895,600; 2435,000;38991,300;97,00271
1099,85;39007,900; 2333,800;40179,000;96,90555
1104,29;39863,800; 2343,900;41108,400;96,78933
1108,73;40748,400; 2303,100;42037,300;96,75619
1113,17;41470,000; 2407,700;42761,500;96,79956
1117,61;42181,000; 2355,500;43454,900;96,90044
1122,03;42857,100; 2409,900;44116,600;96,98010
1126,46;43453,200; 2310,600;44683,800;97,09581
1130,88;43992,600; 2301,200;45196,100;97,19431
1135,29;44687,800; 2423,100;45857,400;97,30720
1139,70;45266,900; 2288,100;46461,700;97,29522
1144,11;45807,900; 2306,000;47061,800;97,19835
1148,51;46378,300; 2313,600;47677,600;97,13583
1152,90;46605,000; 2332,800;47946,200;97,05964
1157,29;47041,000; 2292,900;48421,700;97,00686
1161,68;47205,400; 2313,100;48619,300;96,94663
1166,06;47256,700; 2309,600;48732,900;96,82013
1170,44;47027,800; 2366,100;48547,000;96,71033
1174,81;46231,700; 2318,600;47745,300;96,66804
1179,18;45975,000; 2329,700;47463,900;96,70117
1183,54;45631,200; 2345,800;47060,900;96,80265
1187,90;45570,900; 2377,500;46950,700;96,90442
1192,25;44832,400; 2344,700;46149,700;96,99281
1196,60;44517,000; 2296,300;45763,400;97,13254
1200,94;44123,900; 2354,600;45323,500;97,20821
1205,28;43369,000; 2332,300;44562,200;97,17451
1209,62;42866,100; 2337,500;44056,300;97,14709
1213,95;42556,800; 2380,000;43765,500;97,07941
1218,27;41788,100; 2311,400;43022,100;96,96886
1222,59;40839,000; 2400,700;42056,700;96,92934
1226,91;40420,000; 2335,900;41649,600;96,87234
1231,22;39535,700; 2314,200;40767,800;96,79588
1235,52;38663,300; 2271,300;39901,100;96,71059
1239,82;38120,500; 2322,400;39388,100;96,58013
1244,12;37187,300; 2318,100;38438,000;96,53737
1248,41;36637,700; 2354,100;37852,300;96,57842
1252,70;35809,700; 2253,500;37010,900;96,54405
1256,98;35492,700; 2299,300;36667,700;96,58116
1261,26;35048,100; 2367,800;36177,100;96,66068
1265,53;34205,600; 2238,400;35319,900;96,63165
1269,80;33888,300; 2285,700;34968,200;96,69579
1274,06;33320,700; 2342,500;34372,200;96,71711
1278,32;32735,000; 2321,300;33766,300;96,72031
1282,57;32401,400; 2318,100;33423,400;96,71439
1286,82;31807,600; 2307,600;32829,200;96,65286
1291,06;31259,000; 2356,700;32275,900;96,60118
1295,30;30876,000; 2338,100;31892,600;96,56025
1299,53;30620,000; 2338,200;31647,500;96,49429
1303,76;30053,700; 2323,600;31079,700;96,43206
1307,99;29594,300; 2367,800;30595,000;96,45484
1312,20;29022,900; 2359,900;30024,100;96,38088
1316,42;28065,100; 2280,800;29032,600;96,38342
1320,63;27519,400; 2300,900;28458,500;96,40984
1324,83;26879,000; 2245,000;27777,100;96,48247
1329,03;26291,500; 2317,800;27170,400;96,46355
1333,23;25824,100; 2274,500;26672,500;96,52267
1337,42;25435,400; 2337,300;26255,200;96,57244
1341,60;24825,400; 2270,000;25620,600;96,59452
1345,78;24338,800; 2322,700;25115,000;96,59446
1349,96;23737,200; 2241,600;24490,500;96,61421
1354,13;23011,200; 2280,700;23745,200;96,58040
1358,29;22384,300; 2244,300;23082,400;96,64989
1362,46;21692,600; 2319,600;22366,700;96,63742
1366,61;21170,800; 2323,300;21817,100;96,68459
1370,76;20550,800; 2261,900;21157,200;96,79074
1374,91;19974,500; 2372,400;20568,000;96,73822
1379,05;19306,900; 2274,100;19879,800;96,74594
1383,18;19210,000; 2400,400;19767,200;96,79158
1387,32;19118,800; 2240,200;19676,200;96,80317
1391,44;19321,600; 2273,200;19905,300;96,68956
1395,56;19558,500; 2416,900;20153,000;96,64808
1399,68;19622,500; 2211,300;20249,800;96,52244
1403,79;19885,500; 2272,300;20517,600;96,53555
1407,90;19830,600; 2245,600;20456,300;96,56411
1412,00;19982,700; 2271,700;20615,900;96,54823
1416,10;19936,900; 2318,300;20574,800;96,50590
1420,19;19758,400; 2266,200;20394,400;96,49165
1424,27;19696,500; 2289,200;20322,000;96,53132
1428,36;19571,600; 2300,300;20186,500;96,56215
1432,43;19428,300; 2322,800;20034,000;96,58013
1436,50;19181,500; 2262,400;19772,900;96,62260
1440,57;19185,600; 2312,900;19797,100;96,50256
1444,63;18950,200; 2279,300;19549,200;96,53154
1448,69;18766,300; 2235,800;19361,400;96,52509
1452,74;18708,800; 2272,400;19303,800;96,50645
1456,79;18538,800; 2232,800;19131,100;96,49491
1460,83;18380,900; 2263,600;18961,800;96,52118
1464,87;18209,700; 2350,200;18781,300;96,52123
1468,90;18223,500; 2310,200;18791,500;96,55367
1472,93;17937,800; 2306,900;18491,800;96,57706
1476,95;17779,500; 2315,800;18328,800;96,56966
1480,96;17612,900; 2282,900;18145,100;96,64485
1484,98;17518,500; 2291,100;18038,800;96,69603
1488,98;17302,500; 2297,500;17808,200;96,73967
1492,98;17110,100; 2311,900;17607,700;96,74682
1496,98;16873,100; 2283,500;17361,700;96,75956
1500,97;16751,000; 2313,000;17233,100;96,76879
1504,96;16551,200; 2226,000;17033,400;96,74352
1508,94;16577,200; 2304,800;17050,500;96,79025
1512,92;16404,000; 2244,700;16883,900;96,72182
1516,89;16323,300; 2245,000;16798,700;96,73348
1520,85;16256,100; 2249,200;16740,000;96,66064
1524,81;16165,800; 2344,200;16642,100;96,66874
1528,77;16000,200; 2238,800;16473,000;96,67842
1532,72;15870,500; 2252,300;16334,200;96,70712
1536,67;15739,800; 2346,800;16198,700;96,68710
1540,61;15469,800; 2261,900;15919,100;96,71016
1544,54;15379,000; 2298,100;15815,100;96,77369
1548,47;15163,800; 2230,000;15593,800;96,78235
1552,40;14981,100; 2281,600;15410,700;96,72788
1556,32;14844,500; 2276,600;15285,000;96,61373
1560,23;14585,900; 2270,100;14999,600;96,75007
1564,15;14521,800; 2284,800;14941,900;96,68091
1568,05;14349,000; 2254,700;14763,000;96,69020
1571,95;14170,500; 2299,800;14583,200;96,64018
1575,84;13986,200; 2264,700;14396,200;96,62037
1579,73;13815,200; 2278,600;14216,200;96,64087
1583,62;13639,400; 2291,000;14037,500;96,61091
1587,50;13436,500; 2227,300;13824,900;96,65103
1591,37;13398,100; 2341,500;13765,300;96,78566
1595,24;13203,700; 2290,900;13552,200;96,90533
1599,11;12962,600; 2218,500;13299,400;96,96054
1602,96;12820,900; 2233,800;13148,300;97,00032
1606,82;12606,300; 2199,200;12931,900;96,96628
1610,67;12452,200; 2259,900;12768,200;96,99285
1614,51;12352,100; 2253,600;12662,100;97,02166
1618,35;12148,200; 2200,500;12443,200;97,11990
1622,18;12024,400; 2259,000;12320,000;97,06192
1626,01;11913,800; 2261,500;12204,900;97,07243
1629,83;11760,700; 2264,200;12060,300;96,94164
1633,65;11638,200; 2285,600;11926,300;97,01163
1637,46;11420,300; 2232,700;11710,000;96,94322
1641,27;11305,300; 2240,500;11611,900;96,72834
1645,07;11159,500; 2223,100;11460,600;96,74046
1648,86;11005,300; 2252,200;11293,600;96,81133
1652,66;10940,300; 2239,700;11231,400;96,76257
1656,44;10797,600; 2248,900;11068,200;96,93173
1660,22;10687,400; 2279,900;10946,100;97,01484
1664,00;10633,400; 2293,300;10899,400;96,90917
1667,77;10458,500; 2255,400;10706,100;97,07007
1671,53;10304,300; 2267,200;10535,100;97,20848
1675,29;10193,100; 2218,100;10422,700;97,20157
1679,05;10137,700; 2268,300;10347,700;97,40080
1682,80; 9999,700; 2250,400;10217,700;97,26382
1686,54; 9922,200; 2284,500;10131,800;97,32902
1690,28; 9811,000; 2278,500;10016,500;97,34428
1694,01; 9603,200; 2220,600; 9797,600;97,43434
1697,74; 9492,600; 2222,200; 9685,200;97,41927
1701,46; 9441,900; 2264,100; 9639,900;97,31555
1705,18; 9297,200; 2239,900; 9483,800;97,42404
1708,89; 9118,300; 2178,500; 9321,400;97,15662
1712,60; 9109,500; 2263,700; 9310,100;97,15316
1716,30; 9026,000; 2296,000; 9229,900;97,05937
1720,00; 8967,300; 2272,600; 9164,500;97,13867
1723,69; 8846,800; 2274,100; 9040,800;97,13302
1727,38; 8680,100; 2189,500; 8867,100;97,19959
1731,06; 8645,200; 2257,500; 8834,400;97,12326
1734,73; 8530,200; 2236,800; 8714,100;97,16085
1738,40; 8453,100; 2214,400; 8628,400;97,26692
1742,07; 8455,700; 2286,100; 8625,700;97,31844
1745,73; 8368,700; 2245,800; 8533,600;97,37746
1749,38; 8284,700; 2278,500; 8445,700;97,38941

