reference
Integration time [ms]:  15,000
Averaging Nr. [scans]: 10
Smoothing Nr. [pixels]: 0
Data measured with spectrometer [name]: 1204091U1
Wave   ;Sample   ;Dark     ;Reference;Reflectance
[nm]   ;[counts] ;[counts] ;[counts] ;[%]

1014,48;19453,000; 2348,500;19637,500;98,93285
1019,01;20630,100; 2352,700;20829,700;98,91974
1023,54;21748,400; 2377,000;21962,200;98,90836
1028,07;22797,100; 2352,700;23028,700;98,87986
1032,59;23920,100; 2345,300;24165,800;98,87399
1037,10;25352,900; 2317,300;25614,800;98,87585
1041,62;26530,200; 2350,000;26799,400;98,89895
1046,12;27789,300; 2427,500;28080,800;98,86369
1050,62;28623,600; 2344,700;28925,600;98,86385
1055,12;29482,300; 2300,600;29808,600;98,81380
1059,62;30420,400; 2304,000;30750,500;98,83958
1064,10;31589,300; 2352,400;31934,300;98,83375
1068,59;32515,900; 2395,400;32879,900;98,80595
1073,07;33623,200; 2329,700;33988,100;98,84738
1077,54;34518,100; 2333,200;34909,400;98,79882
1082,01;35680,300; 2383,100;36084,400;98,80094
1086,48;36599,500; 2367,300;37013,200;98,80592
1090,94;37273,000; 2303,100;37697,100;98,80177
1095,39;38550,600; 2435,000;38991,300;98,79446
1099,85;39711,600; 2333,800;40179,000;98,76497
1104,29;40626,800; 2343,900;41108,400;98,75763
1108,73;41561,700; 2303,100;42037,300;98,80305
1113,17;42292,300; 2407,700;42761,500;98,83728
1117,61;42979,700; 2355,500;43454,900;98,84378
1122,03;43622,900; 2409,900;44116,600;98,81626
1126,46;44177,500; 2310,600;44683,800;98,80514
1130,88;44694,000; 2301,200;45196,100;98,82946
1135,29;45355,900; 2423,100;45857,400;98,84538
1139,70;45933,100; 2288,100;46461,700;98,80336
1144,11;46520,400; 2306,000;47061,800;98,79032
1148,51;47148,700; 2313,600;47677,600;98,83410
1152,90;47411,700; 2332,800;47946,200;98,82820
1157,29;47867,300; 2292,900;48421,700;98,79815
1161,68;48072,700; 2313,100;48619,300;98,81960
1166,06;48180,400; 2309,600;48732,900;98,80986
1170,44;47989,400; 2366,100;48547,000;98,79257
1174,81;47204,000; 2318,600;47745,300;98,80841
1179,18;46929,400; 2329,700;47463,900;98,81575
1183,54;46531,100; 2345,800;47060,900;98,81517
1187,90;46418,100; 2377,500;46950,700;98,80511
1192,25;45630,700; 2344,700;46149,700;98,81520
1196,60;45256,500; 2296,300;45763,400;98,83383
1200,94;44826,000; 2354,600;45323,500;98,84219
1205,28;44063,300; 2332,300;44562,200;98,81861
1209,62;43576,900; 2337,500;44056,300;98,85088
1213,95;43279,300; 2380,000;43765,500;98,82519
1218,27;42543,400; 2311,400;43022,100;98,82414
1222,59;41589,200; 2400,700;42056,700;98,82111
1226,91;41189,700; 2335,900;41649,600;98,83018
1231,22;40319,000; 2314,200;40767,800;98,83288
1235,52;39435,800; 2271,300;39901,100;98,76348
1239,82;38930,200; 2322,400;39388,100;98,76463
1244,12;37987,800; 2318,100;38438,000;98,75360
1248,41;37425,400; 2354,100;37852,300;98,79740
1252,70;36585,300; 2253,500;37010,900;98,77551
1256,98;36248,600; 2299,300;36667,700;98,78057
1261,26;35760,700; 2367,800;36177,100;98,76839
1265,53;34906,100; 2238,400;35319,900;98,74915
1269,80;34581,500; 2285,700;34968,200;98,81680
1274,06;33987,800; 2342,500;34372,200;98,79986
1278,32;33385,100; 2321,300;33766,300;98,78772
1282,57;33048,900; 2318,100;33423,400;98,79603
1286,82;32448,700; 2307,600;32829,200;98,75334
1291,06;31891,800; 2356,700;32275,900;98,71621
1295,30;31536,500; 2338,100;31892,600;98,79511
1299,53;31295,400; 2338,200;31647,500;98,79867
1303,76;30748,800; 2323,600;31079,700;98,84929
1307,99;30282,500; 2367,800;30595,000;98,89291
1312,20;29716,900; 2359,900;30024,100;98,88954
1316,42;28725,300; 2280,800;29032,600;98,85129
1320,63;28173,200; 2300,900;28458,500;98,90930
1324,83;27512,600; 2245,000;27777,100;98,96405
1329,03;26910,400; 2317,800;27170,400;98,95383
1333,23;26412,700; 2274,500;26672,500;98,93516
1337,42;25993,200; 2337,300;26255,200;98,90459
1341,60;25346,800; 2270,000;25620,600;98,82744
1345,78;24842,700; 2322,700;25115,000;98,80530
1349,96;24228,800; 2241,600;24490,500;98,82376
1354,13;23501,300; 2280,700;23745,200;98,86371
1358,29;22856,600; 2244,300;23082,400;98,91641
1362,46;22155,900; 2319,600;22366,700;98,94848
1366,61;21630,500; 2323,300;21817,100;99,04277
1370,76;20979,200; 2261,900;21157,200;99,05797
1374,91;20382,800; 2372,400;20568,000;98,98217
1379,05;19704,100; 2274,100;19879,800;99,00203
1383,18;19600,100; 2400,400;19767,200;99,03782
1387,32;19511,800; 2240,200;19676,200;99,05712
1391,44;19737,500; 2273,200;19905,300;99,04833
1395,56;19983,400; 2416,900;20153,000;99,04376
1399,68;20074,200; 2211,300;20249,800;99,02653
1403,79;20321,300; 2272,300;20517,600;98,92411
1407,90;20272,500; 2245,600;20456,300;98,99070
1412,00;20436,700; 2271,700;20615,900;99,02312
1416,10;20400,100; 2318,300;20574,800;99,04308
1420,19;20232,900; 2266,200;20394,400;99,10912
1424,27;20159,700; 2289,200;20322,000;99,09997
1428,36;20027,600; 2300,300;20186,500;99,11161
1432,43;19865,600; 2322,800;20034,000;99,04919
1436,50;19613,200; 2262,400;19772,900;99,08798
1440,57;19616,000; 2312,900;19797,100;98,96421
1444,63;19372,700; 2279,300;19549,200;98,97799
1448,69;19195,500; 2235,800;19361,400;99,03127
1452,74;19142,900; 2272,400;19303,800;99,05527
1456,79;18967,200; 2232,800;19131,100;99,03008
1460,83;18801,000; 2263,600;18961,800;99,03702
1464,87;18615,700; 2350,200;18781,300;98,99216
1468,90;18622,400; 2310,200;18791,500;98,97399
1472,93;18331,100; 2306,900;18491,800;99,00710
1476,95;18166,800; 2315,800;18328,800;98,98832
1480,96;18003,200; 2282,900;18145,100;99,10542
1484,98;17900,700; 2291,100;18038,800;99,12305
1488,98;17680,800; 2297,500;17808,200;99,17863
1492,98;17479,200; 2311,900;17607,700;99,15990
1496,98;17236,100; 2283,500;17361,700;99,16701
1500,97;17108,900; 2313,000;17233,100;99,16757
1504,96;16918,600; 2226,000;17033,400;99,22471
1508,94;16932,400; 2304,800;17050,500;99,19909
1512,92;16758,000; 2244,700;16883,900;99,13998
1516,89;16668,500; 2245,000;16798,700;99,10538
1520,85;16606,900; 2249,200;16740,000;99,08149
1524,81;16517,300; 2344,200;16642,100;99,12714
1528,77;16343,800; 2238,800;16473,000;99,09233
1532,72;16203,900; 2252,300;16334,200;99,07470
1536,67;16071,700; 2346,800;16198,700;99,08316
1540,61;15791,500; 2261,900;15919,100;99,06569
1544,54;15693,100; 2298,100;15815,100;99,09743
1548,47;15483,100; 2230,000;15593,800;99,17164
1552,40;15303,600; 2281,600;15410,700;99,18425
1556,32;15178,600; 2276,600;15285,000;99,18207
1560,23;14898,700; 2270,100;14999,600;99,20735
1564,15;14841,700; 2284,800;14941,900;99,20835
1568,05;14669,400; 2254,700;14763,000;99,25170
1571,95;14488,200; 2299,800;14583,200;99,22660
1575,84;14300,200; 2264,700;14396,200;99,20867
1579,73;14121,000; 2278,600;14216,200;99,20252
1583,62;13938,800; 2291,000;14037,500;99,15975
1587,50;13726,100; 2227,300;13824,900;99,14810
1591,37;13673,800; 2341,500;13765,300;99,19904
1595,24;13463,300; 2290,900;13552,200;99,21057
1599,11;13221,100; 2218,500;13299,400;99,29338
1602,96;13069,100; 2233,800;13148,300;99,27436
1606,82;12844,500; 2199,200;12931,900;99,18567
1610,67;12682,900; 2259,900;12768,200;99,18826
1614,51;12580,300; 2253,600;12662,100;99,21410
1618,35;12373,000; 2200,500;12443,200;99,31463
1622,18;12234,800; 2259,000;12320,000;99,15317
1626,01;12123,500; 2261,500;12204,900;99,18137
1629,83;11970,000; 2264,200;12060,300;99,07820
1633,65;11837,800; 2285,600;11926,300;99,08202
1637,46;11639,100; 2232,700;11710,000;99,25190
1641,27;11527,100; 2240,500;11611,900;99,09512
1645,07;11382,400; 2223,100;11460,600;99,15345
1648,86;11217,900; 2252,200;11293,600;99,16274
1652,66;11168,200; 2239,700;11231,400;99,29713
1656,44;11010,900; 2248,900;11068,200;99,35029
1660,22;10889,300; 2279,900;10946,100;99,34458
1664,00;10838,800; 2293,300;10899,400;99,29585
1667,77;10649,800; 2255,400;10706,100;99,33378
1671,53;10489,500; 2267,200;10535,100;99,44847
1675,29;10376,600; 2218,100;10422,700;99,43812
1679,05;10308,900; 2268,300;10347,700;99,51977
1682,80;10167,400; 2250,400;10217,700;99,36867
1686,54;10082,900; 2284,500;10131,800;99,37686
1690,28; 9977,400; 2278,500;10016,500;99,49470
1694,01; 9762,400; 2220,600; 9797,600;99,53544
1697,74; 9638,200; 2222,200; 9685,200;99,37023
1701,46; 9595,700; 2264,100; 9639,900;99,40074
1705,18; 9459,700; 2239,900; 9483,800;99,66731
1708,89; 9272,400; 2178,500; 9321,400;99,31400
1712,60; 9258,000; 2263,700; 9310,100;99,26062
1716,30; 9176,800; 2296,000; 9229,900;99,23420
1720,00; 9112,200; 2272,600; 9164,500;99,24114
1723,69; 8987,300; 2274,100; 9040,800;99,20936
1727,38; 8830,400; 2189,500; 8867,100;99,45040
1731,06; 8798,800; 2257,500; 8834,400;99,45871
1734,73; 8681,700; 2236,800; 8714,100;99,49979
1738,40; 8596,300; 2214,400; 8628,400;99,49953
1742,07; 8585,400; 2286,100; 8625,700;99,36431
1745,73; 8503,600; 2245,800; 8533,600;99,52289
1749,38; 8424,500; 2278,500; 8445,700;99,65625

