white pet square
Integration time [ms]:  15,000
Averaging Nr. [scans]: 10
Smoothing Nr. [pixels]: 0
Data measured with spectrometer [name]: 1204091U1
Wave   ;Sample   ;Dark     ;Reference;Reflectance
[nm]   ;[counts] ;[counts] ;[counts] ;[%]

1014,48;17224,600; 2348,500;19637,500;86,04373
1019,01;18190,300; 2352,700;20829,700;85,71521
1023,54;19105,500; 2377,000;21962,200;85,41399
1028,07;19958,800; 2352,700;23028,700;85,15235
1032,59;20881,400; 2345,300;24165,800;84,94810
1037,10;22069,100; 2317,300;25614,800;84,78077
1041,62;23010,800; 2350,000;26799,400;84,50432
1046,12;24039,800; 2427,500;28080,800;84,24764
1050,62;24668,100; 2344,700;28925,600;83,98286
1055,12;25335,200; 2300,600;29808,600;83,73782
1059,62;26066,500; 2304,000;30750,500;83,53400
1064,10;26996,200; 2352,400;31934,300;83,30702
1068,59;27728,200; 2395,400;32879,900;83,10059
1073,07;28589,200; 2329,700;33988,100;82,94639
1077,54;29255,500; 2333,200;34909,400;82,64408
1082,01;30114,400; 2383,100;36084,400;82,28555
1086,48;30727,400; 2367,300;37013,200;81,85702
1090,94;31101,200; 2303,100;37697,100;81,36436
1095,39;31950,200; 2435,000;38991,300;80,73902
1099,85;32598,300; 2333,800;40179,000;79,96919
1104,29;32961,400; 2343,900;41108,400;78,98335
1108,73;33242,800; 2303,100;42037,300;77,86667
1113,17;33316,900; 2407,700;42761,500;76,59551
1117,61;33262,200; 2355,500;43454,900;75,19988
1122,03;33164,000; 2409,900;44116,600;73,73899
1126,46;33079,200; 2310,600;44683,800;72,61335
1130,88;33325,300; 2301,200;45196,100;72,32585
1135,29;34166,000; 2423,100;45857,400;73,08256
1139,70;35001,000; 2288,100;46461,700;74,05532
1144,11;35619,800; 2306,000;47061,800;74,43460
1148,51;35962,800; 2313,600;47677,600;74,17600
1152,90;35905,200; 2332,800;47946,200;73,60206
1157,29;35938,500; 2292,900;48421,700;72,93838
1161,68;35770,700; 2313,100;48619,300;72,25296
1166,06;35573,200; 2309,600;48732,900;71,65281
1170,44;35246,500; 2366,100;48547,000;71,19913
1174,81;34576,900; 2318,600;47745,300;71,01176
1179,18;34446,000; 2329,700;47463,900;71,15735
1183,54;34327,800; 2345,800;47060,900;71,52394
1187,90;34465,500; 2377,500;46950,700;71,98945
1192,25;34099,200; 2344,700;46149,700;72,49058
1196,60;33969,100; 2296,300;45763,400;72,86614
1200,94;33748,400; 2354,600;45323,500;73,06168
1205,28;33207,200; 2332,300;44562,200;73,11147
1209,62;32828,000; 2337,500;44056,300;73,08576
1213,95;32572,000; 2380,000;43765,500;72,95309
1218,27;31939,600; 2311,400;43022,100;72,77743
1222,59;31201,900; 2400,700;42056,700;72,62760
1226,91;30808,700; 2335,900;41649,600;72,42463
1231,22;30084,200; 2314,200;40767,800;72,21691
1235,52;29343,800; 2271,300;39901,100;71,94431
1239,82;28883,300; 2322,400;39388,100;71,65897
1244,12;28117,800; 2318,100;38438,000;71,42794
1248,41;27628,800; 2354,100;37852,300;71,19995
1252,70;26919,500; 2253,500;37010,900;70,96618
1256,98;26617,100; 2299,300;36667,700;70,75628
1261,26;26206,200; 2367,800;36177,100;70,50841
1265,53;25463,600; 2238,400;35319,900;70,20601
1269,80;25153,800; 2285,700;34968,200;69,97047
1274,06;24675,600; 2342,500;34372,200;69,72622
1278,32;24155,700; 2321,300;33766,300;69,43679
1282,57;23807,800; 2318,100;33423,400;69,08694
1286,82;23282,000; 2307,600;32829,200;68,71986
1291,06;22816,100; 2356,700;32275,900;68,38218
1295,30;22464,300; 2338,100;31892,600;68,09860
1299,53;22185,200; 2338,200;31647,500;67,71571
1303,76;21668,900; 2323,600;31079,700;67,27373
1307,99;21255,200; 2367,800;30595,000;66,91206
1312,20;20762,200; 2359,900;30024,100;66,52027
1316,42;19961,300; 2280,800;29032,600;66,09088
1320,63;19466,900; 2300,900;28458,500;65,62529
1324,83;18879,400; 2245,000;27777,100;65,15093
1329,03;18369,100; 2317,800;27170,400;64,58600
1333,23;17893,000; 2274,500;26672,500;64,01549
1337,42;17481,600; 2337,300;26255,200;63,31785
1341,60;16877,800; 2270,000;25620,600;62,55856
1345,78;16397,400; 2322,700;25115,000;61,75200
1349,96;15796,500; 2241,600;24490,500;60,92391
1354,13;15197,400; 2280,700;23745,200;60,17704
1358,29;14666,700; 2244,300;23082,400;59,61388
1362,46;14167,900; 2319,600;22366,700;59,10231
1366,61;13743,600; 2323,300;21817,100;58,58427
1370,76;13251,900; 2261,900;21157,200;58,16261
1374,91;12856,800; 2372,400;20568,000;57,62052
1379,05;12317,000; 2274,100;19879,800;57,04346
1383,18;12223,800; 2400,400;19767,200;56,56425
1387,32;11980,500; 2240,200;19676,200;55,86316
1391,44;11975,600; 2273,200;19905,300;55,02691
1395,56;12100,600; 2416,900;20153,000;54,59881
1399,68;11958,900; 2211,300;20249,800;54,03775
1403,79;12029,200; 2272,300;20517,600;53,47624
1407,90;11943,800; 2245,600;20456,300;53,25550
1412,00;12035,300; 2271,700;20615,900;53,22445
1416,10;12049,600; 2318,300;20574,800;53,30321
1420,19;11957,600; 2266,200;20394,400;53,46035
1424,27;11984,100; 2289,200;20322,000;53,76259
1428,36;11987,800; 2300,300;20186,500;54,16187
1432,43;11966,700; 2322,800;20034,000;54,45086
1436,50;11855,400; 2262,400;19772,900;54,78427
1440,57;11917,900; 2312,900;19797,100;54,93531
1444,63;11791,200; 2279,300;19549,200;55,07791
1448,69;11682,300; 2235,800;19361,400;55,16011
1452,74;11671,800; 2272,400;19303,800;55,18865
1456,79;11549,200; 2232,800;19131,100;55,13217
1460,83;11479,800; 2263,600;18961,800;55,19278
1464,87;11426,900; 2350,200;18781,300;55,24098
1468,90;11445,000; 2310,200;18791,500;55,42524
1472,93;11288,500; 2306,900;18491,800;55,49370
1476,95;11207,700; 2315,800;18328,800;55,52926
1480,96;11106,000; 2282,900;18145,100;55,62343
1484,98;11058,000; 2291,100;18038,800;55,67099
1488,98;10926,400; 2297,500;17808,200;55,63192
1492,98;10806,200; 2311,900;17607,700;55,53355
1496,98;10647,600; 2283,500;17361,700;55,47148
1500,97;10567,200; 2313,000;17233,100;55,32269
1504,96;10400,800; 2226,000;17033,400;55,20753
1508,94;10428,600; 2304,800;17050,500;55,09267
1512,92;10293,800; 2244,700;16883,900;54,98320
1516,89;10228,600; 2245,000;16798,700;54,85615
1520,85;10165,700; 2249,200;16740,000;54,63121
1524,81;10120,700; 2344,200;16642,100;54,38911
1528,77; 9950,700; 2238,800;16473,000;54,17867
1532,72; 9858,900; 2252,300;16334,200;54,01686
1536,67; 9800,900; 2346,800;16198,700;53,81283
1540,61; 9593,700; 2261,900;15919,100;53,68450
1544,54; 9533,200; 2298,100;15815,100;53,52593
1548,47; 9353,100; 2230,000;15593,800;53,30146
1552,40; 9247,100; 2281,600;15410,700;53,05390
1556,32; 9151,800; 2276,600;15285,000;52,85200
1560,23; 8968,300; 2270,100;14999,600;52,61951
1564,15; 8918,400; 2284,800;14941,900;52,41011
1568,05; 8791,200; 2254,700;14763,000;52,25730
1571,95; 8665,300; 2299,800;14583,200;51,82197
1575,84; 8513,900; 2264,700;14396,200;51,51218
1579,73; 8379,400; 2278,600;14216,200;51,10575
1583,62; 8251,000; 2291,000;14037,500;50,73852
1587,50; 8072,600; 2227,300;13824,900;50,40095
1591,37; 8046,200; 2341,500;13765,300;49,93697
1595,24; 7838,000; 2290,900;13552,200;49,25808
1599,11; 7612,400; 2218,500;13299,400;48,67745
1602,96; 7459,200; 2233,800;13148,300;47,87576
1606,82; 7217,100; 2199,200;12931,900;46,75338
1610,67; 7028,500; 2259,900;12768,200;45,37937
1614,51; 6816,100; 2253,600;12662,100;43,83437
1618,35; 6562,600; 2200,500;12443,200;42,58740
1622,18; 6396,400; 2259,000;12320,000;41,12315
1626,01; 6174,800; 2261,500;12204,900;39,35575
1629,83; 5915,300; 2264,200;12060,300;37,27095
1633,65; 5656,800; 2285,600;11926,300;34,96842
1637,46; 5286,800; 2232,700;11710,000;32,22542
1641,27; 4995,800; 2240,500;11611,900;29,40116
1645,07; 4720,000; 2223,100;11460,600;27,03004
1648,86; 4527,300; 2252,200;11293,600;25,16314
1652,66; 4385,600; 2239,700;11231,400;23,86534
1656,44; 4289,200; 2248,900;11068,200;23,13449
1660,22; 4283,900; 2279,900;10946,100;23,12432
1664,00; 4357,200; 2293,300;10899,400;23,98183
1667,77; 4440,100; 2255,400;10706,100;25,85230
1671,53; 4547,500; 2267,200;10535,100;27,58016
1675,29; 4590,800; 2218,100;10422,700;28,91914
1679,05; 4660,000; 2268,300;10347,700;29,60245
1682,80; 4655,000; 2250,400;10217,700;30,18086
1686,54; 4736,000; 2284,500;10131,800;31,24004
1690,28; 4777,500; 2278,500;10016,500;32,29517
1694,01; 4698,500; 2220,600; 9797,600;32,70292
1697,74; 4647,500; 2222,200; 9685,200;32,49766
1701,46; 4624,300; 2264,100; 9639,900;31,99924
1705,18; 4543,300; 2239,900; 9483,800;31,79779
1708,89; 4443,100; 2178,500; 9321,400;31,70421
1712,60; 4495,500; 2263,700; 9310,100;31,67291
1716,30; 4488,400; 2296,000; 9229,900;31,61857
1720,00; 4463,800; 2272,600; 9164,500;31,79384
1723,69; 4437,700; 2274,100; 9040,800;31,97423
1727,38; 4361,000; 2189,500; 8867,100;32,51917
1731,06; 4433,900; 2257,500; 8834,400;33,09158
1734,73; 4414,600; 2236,800; 8714,100;33,62203
1738,40; 4409,200; 2214,400; 8628,400;34,21890
1742,07; 4482,400; 2286,100; 8625,700;34,64414
1745,73; 4451,400; 2245,800; 8533,600;35,07745
1749,38; 4461,100; 2278,500; 8445,700;35,39045

