whitepstriangle
Integration time [ms]:  15,000
Averaging Nr. [scans]: 10
Smoothing Nr. [pixels]: 0
Data measured with spectrometer [name]: 1204091U1
Wave   ;Sample   ;Dark     ;Reference;Reflectance
[nm]   ;[counts] ;[counts] ;[counts] ;[%]

1014,48;12893,400; 2348,500;19637,500;60,99196
1019,01;13584,700; 2352,700;20829,700;60,78909
1023,54;14251,900; 2377,000;21962,200;60,63201
1028,07;14848,700; 2352,700;23028,700;60,43722
1032,59;15507,600; 2345,300;24165,800;60,32080
1037,10;16346,400; 2317,300;25614,800;60,21719
1041,62;17016,100; 2350,000;26799,400;59,98552
1046,12;17782,300; 2427,500;28080,800;59,85507
1050,62;18211,500; 2344,700;28925,600;59,69249
1055,12;18687,700; 2300,600;29808,600;59,57212
1059,62;19217,100; 2304,000;30750,500;59,45582
1064,10;19916,800; 2352,400;31934,300;59,37550
1068,59;20461,900; 2395,400;32879,900;59,26454
1073,07;21070,400; 2329,700;33988,100;59,19661
1077,54;21572,900; 2333,200;34909,400;59,06060
1082,01;22212,000; 2383,100;36084,400;58,83720
1086,48;22685,100; 2367,300;37013,200;58,64417
1090,94;22990,500; 2303,100;37697,100;58,44889
1095,39;23699,300; 2435,000;38991,300;58,16863
1099,85;24228,200; 2333,800;40179,000;57,85251
1104,29;24649,500; 2343,900;41108,400;57,54131
1108,73;25023,400; 2303,100;42037,300;57,18072
1113,17;25327,800; 2407,700;42761,500;56,79787
1117,61;25516,800; 2355,500;43454,900;56,35435
1122,03;25683,700; 2409,900;44116,600;55,80350
1126,46;25691,100; 2310,600;44683,800;55,17757
1130,88;25653,100; 2301,200;45196,100;54,43981
1135,29;25683,700; 2423,100;45857,400;53,55353
1139,70;25592,000; 2288,100;46461,700;52,75527
1144,11;25751,500; 2306,000;47061,800;52,38539
1148,51;26164,100; 2313,600;47677,600;52,57583
1152,90;26561,400; 2332,800;47946,200;53,11729
1157,29;27018,200; 2292,900;48421,700;53,60057
1161,68;27202,900; 2313,100;48619,300;53,75047
1166,06;27234,000; 2309,600;48732,900;53,68942
1170,44;27084,100; 2366,100;48547,000;53,52429
1174,81;26536,900; 2318,600;47745,300;53,31292
1179,18;26299,700; 2329,700;47463,900;53,10829
1183,54;25965,500; 2345,800;47060,900;52,82265
1187,90;25758,200; 2377,500;46950,700;52,45461
1192,25;25183,500; 2344,700;46149,700;52,13743
1196,60;24842,300; 2296,300;45763,400;51,86911
1200,94;24531,200; 2354,600;45323,500;51,61082
1205,28;24035,700; 2332,300;44562,200;51,39344
1209,62;23742,800; 2337,500;44056,300;51,30852
1213,95;23578,700; 2380,000;43765,500;51,22253
1218,27;23176,500; 2311,400;43022,100;51,25213
1222,59;22746,900; 2400,700;42056,700;51,30674
1226,91;22516,700; 2335,900;41649,600;51,33274
1231,22;22035,800; 2314,200;40767,800;51,28675
1235,52;21541,900; 2271,300;39901,100;51,21101
1239,82;21237,400; 2322,400;39388,100;51,03101
1244,12;20706,600; 2318,100;38438,000;50,90961
1248,41;20385,800; 2354,100;37852,300;50,79610
1252,70;19853,300; 2253,500;37010,900;50,63612
1256,98;19646,600; 2299,300;36667,700;50,47456
1261,26;19376,800; 2367,800;36177,100;50,30864
1265,53;18807,300; 2238,400;35319,900;50,08509
1269,80;18608,200; 2285,700;34968,200;49,94263
1274,06;18278,700; 2342,500;34372,200;49,75445
1278,32;17887,000; 2321,300;33766,300;49,50135
1282,57;17640,900; 2318,100;33423,400;49,26106
1286,82;17276,200; 2307,600;32829,200;49,04265
1291,06;16945,200; 2356,700;32275,900;48,75966
1295,30;16670,600; 2338,100;31892,600;48,49515
1299,53;16472,000; 2338,200;31647,500;48,22292
1303,76;16124,900; 2323,600;31079,700;47,99434
1307,99;15848,300; 2367,800;30595,000;47,75713
1312,20;15497,200; 2359,900;30024,100;47,48845
1316,42;14917,500; 2280,800;29032,600;47,23682
1320,63;14610,800; 2300,900;28458,500;47,06051
1324,83;14209,300; 2245,000;27777,100;46,85984
1329,03;13888,400; 2317,800;27170,400;46,55690
1333,23;13572,300; 2274,500;26672,500;46,30625
1337,42;13370,600; 2337,300;26255,200;46,12989
1341,60;12981,300; 2270,000;25620,600;45,87163
1345,78;12703,500; 2322,700;25115,000;45,54521
1349,96;12321,600; 2241,600;24490,500;45,30561
1354,13;11955,000; 2280,700;23745,200;45,07116
1358,29;11598,800; 2244,300;23082,400;44,89133
1362,46;11239,800; 2319,600;22366,700;44,49621
1366,61;10925,900; 2323,300;21817,100;44,12993
1370,76;10550,900; 2261,900;21157,200;43,86805
1374,91;10287,500; 2372,400;20568,000;43,50008
1379,05; 9870,500; 2274,100;19879,800;43,14739
1383,18; 9831,000; 2400,400;19767,200;42,78624
1387,32; 9642,500; 2240,200;19676,200;42,45412
1391,44; 9693,800; 2273,200;19905,300;42,08574
1395,56; 9843,900; 2416,900;20153,000;41,87505
1399,68; 9713,100; 2211,300;20249,800;41,58772
1403,79; 9795,600; 2272,300;20517,600;41,23418
1407,90; 9710,600; 2245,600;20456,300;40,99238
1412,00; 9750,300; 2271,700;20615,900;40,76820
1416,10; 9742,100; 2318,300;20574,800;40,66387
1420,19; 9616,700; 2266,200;20394,400;40,54732
1424,27; 9560,300; 2289,200;20322,000;40,32153
1428,36; 9497,700; 2300,300;20186,500;40,23996
1432,43; 9422,700; 2322,800;20034,000;40,08706
1436,50; 9249,000; 2262,400;19772,900;39,89949
1440,57; 9256,200; 2312,900;19797,100;39,71185
1444,63; 9104,900; 2279,300;19549,200;39,52310
1448,69; 8981,900; 2235,800;19361,400;39,39190
1452,74; 8953,600; 2272,400;19303,800;39,22872
1456,79; 8829,900; 2232,800;19131,100;39,04002
1460,83; 8743,900; 2263,600;18961,800;38,80837
1464,87; 8690,100; 2350,200;18781,300;38,58476
1468,90; 8641,600; 2310,200;18791,500;38,41566
1472,93; 8507,300; 2306,900;18491,800;38,30978
1476,95; 8413,400; 2315,800;18328,800;38,07906
1480,96; 8297,700; 2282,900;18145,100;37,91908
1484,98; 8235,900; 2291,100;18038,800;37,75027
1488,98; 8122,800; 2297,500;17808,200;37,55665
1492,98; 8035,400; 2311,900;17607,700;37,41877
1496,98; 7909,300; 2283,500;17361,700;37,31082
1500,97; 7850,800; 2313,000;17233,100;37,11637
1504,96; 7680,700; 2226,000;17033,400;36,83766
1508,94; 7716,100; 2304,800;17050,500;36,69748
1512,92; 7582,200; 2244,700;16883,900;36,46033
1516,89; 7531,800; 2245,000;16798,700;36,32616
1520,85; 7481,800; 2249,200;16740,000;36,10981
1524,81; 7476,500; 2344,200;16642,100;35,89548
1528,77; 7306,500; 2238,800;16473,000;35,60228
1532,72; 7253,400; 2252,300;16334,200;35,51438
1536,67; 7230,500; 2346,800;16198,700;35,25654
1540,61; 7060,600; 2261,900;15919,100;35,13678
1544,54; 7028,200; 2298,100;15815,100;34,99371
1548,47; 6874,200; 2230,000;15593,800;34,75209
1552,40; 6818,700; 2281,600;15410,700;34,55759
1556,32; 6741,300; 2276,600;15285,000;34,32167
1560,23; 6616,000; 2270,100;14999,600;34,14038
1564,15; 6581,100; 2284,800;14941,900;33,94379
1568,05; 6478,900; 2254,700;14763,000;33,77118
1571,95; 6414,000; 2299,800;14583,200;33,49398
1575,84; 6296,600; 2264,700;14396,200;33,23497
1579,73; 6222,500; 2278,600;14216,200;33,03763
1583,62; 6137,200; 2291,000;14037,500;32,74337
1587,50; 6008,000; 2227,300;13824,900;32,59899
1591,37; 6046,100; 2341,500;13765,300;32,42879
1595,24; 5917,200; 2290,900;13552,200;32,20143
1599,11; 5760,000; 2218,500;13299,400;31,96040
1602,96; 5686,900; 2233,800;13148,300;31,63773
1606,82; 5558,700; 2199,200;12931,900;31,30154
1610,67; 5510,900; 2259,900;12768,200;30,93745
1614,51; 5446,100; 2253,600;12662,100;30,67205
1618,35; 5291,400; 2200,500;12443,200;30,17661
1622,18; 5241,000; 2259,000;12320,000;29,63920
1626,01; 5151,300; 2261,500;12204,900;29,06249
1629,83; 5048,000; 2264,200;12060,300;28,41743
1633,65; 4969,300; 2285,600;11926,300;27,83719
1637,46; 4821,300; 2232,700;11710,000;27,31369
1641,27; 4747,700; 2240,500;11611,900;26,75374
1645,07; 4648,000; 2223,100;11460,600;26,25061
1648,86; 4579,600; 2252,200;11293,600;25,74159
1652,66; 4500,000; 2239,700;11231,400;25,13763
1656,44; 4383,600; 2248,900;11068,200;24,20487
1660,22; 4282,900; 2279,900;10946,100;23,11278
1664,00; 4174,400; 2293,300;10899,400;21,85775
1667,77; 4008,600; 2255,400;10706,100;20,74621
1671,53; 3907,200; 2267,200;10535,100;19,83575
1675,29; 3806,000; 2218,100;10422,700;19,35378
1679,05; 3825,400; 2268,300;10347,700;19,27247
1682,80; 3803,800; 2250,400;10217,700;19,49719
1686,54; 3853,600; 2284,500;10131,800;19,99541
1690,28; 3853,700; 2278,500;10016,500;20,35668
1694,01; 3803,300; 2220,600; 9797,600;20,88821
1697,74; 3820,200; 2222,200; 9685,200;21,41230
1701,46; 3883,900; 2264,100; 9639,900;21,96101
1705,18; 3856,100; 2239,900; 9483,800;22,31119
1708,89; 3783,000; 2178,500; 9321,400;22,46287
1712,60; 3848,400; 2263,700; 9310,100;22,48950
1716,30; 3855,300; 2296,000; 9229,900;22,48807
1720,00; 3825,200; 2272,600; 9164,500;22,52790
1723,69; 3799,500; 2274,100; 9040,800;22,54275
1727,38; 3711,300; 2189,500; 8867,100;22,78963
1731,06; 3767,700; 2257,500; 8834,400;22,96219
1734,73; 3733,700; 2236,800; 8714,100;23,10994
1738,40; 3709,000; 2214,400; 8628,400;23,30215
1742,07; 3757,100; 2286,100; 8625,700;23,20336
1745,73; 3695,000; 2245,800; 8533,600;23,04781
1749,38; 3692,000; 2278,500; 8445,700;22,91964

