white bed pooh
Integration time [ms]:  15,000
Averaging Nr. [scans]: 10
Smoothing Nr. [pixels]: 0
Data measured with spectrometer [name]: 1204091U1
Wave   ;Sample   ;Dark     ;Reference;Reflectance
[nm]   ;[counts] ;[counts] ;[counts] ;[%]

1014,48; 3295,400; 2348,500;19637,500; 5,47689
1019,01; 3348,600; 2352,700;20829,700; 5,38994
1023,54; 3429,800; 2377,000;21962,200; 5,37549
1028,07; 3446,600; 2352,700;23028,700; 5,29068
1032,59; 3489,200; 2345,300;24165,800; 5,24232
1037,10; 3526,100; 2317,300;25614,800; 5,18854
1041,62; 3598,500; 2350,000;26799,400; 5,10646
1046,12; 3731,200; 2427,500;28080,800; 5,08200
1050,62; 3689,200; 2344,700;28925,600; 5,05814
1055,12; 3689,300; 2300,600;29808,600; 5,04835
1059,62; 3726,600; 2304,000;30750,500; 5,00097
1064,10; 3829,800; 2352,400;31934,300; 4,99427
1068,59; 3912,400; 2395,400;32879,900; 4,97630
1073,07; 3894,900; 2329,700;33988,100; 4,94403
1077,54; 3944,500; 2333,200;34909,400; 4,94625
1082,01; 4026,000; 2383,100;36084,400; 4,87489
1086,48; 4069,400; 2367,300;37013,200; 4,91285
1090,94; 4031,100; 2303,100;37697,100; 4,88218
1095,39; 4213,300; 2435,000;38991,300; 4,86455
1099,85; 4167,000; 2333,800;40179,000; 4,84394
1104,29; 4212,000; 2343,900;41108,400; 4,81910
1108,73; 4213,500; 2303,100;42037,300; 4,80795
1113,17; 4346,700; 2407,700;42761,500; 4,80500
1117,61; 4330,700; 2355,500;43454,900; 4,80591
1122,03; 4405,900; 2409,900;44116,600; 4,78580
1126,46; 4341,200; 2310,600;44683,800; 4,79218
1130,88; 4347,800; 2301,200;45196,100; 4,77120
1135,29; 4476,900; 2423,100;45857,400; 4,72852
1139,70; 4361,700; 2288,100;46461,700; 4,69421
1144,11; 4371,800; 2306,000;47061,800; 4,61571
1148,51; 4358,700; 2313,600;47677,600; 4,50820
1152,90; 4348,000; 2332,800;47946,200; 4,41800
1157,29; 4279,200; 2292,900;48421,700; 4,30599
1161,68; 4235,000; 2313,100;48619,300; 4,15042
1166,06; 4173,700; 2309,600;48732,900; 4,01544
1170,44; 4186,500; 2366,100;48547,000; 3,94189
1174,81; 4074,300; 2318,600;47745,300; 3,86491
1179,18; 4026,600; 2329,700;47463,900; 3,75968
1183,54; 3954,300; 2345,800;47060,900; 3,59722
1187,90; 3921,400; 2377,500;46950,700; 3,46374
1192,25; 3797,900; 2344,700;46149,700; 3,31743
1196,60; 3660,800; 2296,300;45763,400; 3,13916
1200,94; 3620,900; 2354,600;45323,500; 2,94702
1205,28; 3515,800; 2332,300;44562,200; 2,80252
1209,62; 3469,100; 2337,500;44056,300; 2,71245
1213,95; 3510,900; 2380,000;43765,500; 2,73260
1218,27; 3481,800; 2311,400;43022,100; 2,87492
1222,59; 3641,300; 2400,700;42056,700; 3,12840
1226,91; 3683,700; 2335,900;41649,600; 3,42832
1231,22; 3730,600; 2314,200;40767,800; 3,68340
1235,52; 3732,500; 2271,300;39901,100; 3,88309
1239,82; 3819,400; 2322,400;39388,100; 4,03877
1244,12; 3824,800; 2318,100;38438,000; 4,17138
1248,41; 3871,900; 2354,100;37852,300; 4,27571
1252,70; 3767,000; 2253,500;37010,900; 4,35447
1256,98; 3822,900; 2299,300;36667,700; 4,43314
1261,26; 3882,500; 2367,800;36177,100; 4,48013
1265,53; 3734,500; 2238,400;35319,900; 4,52247
1269,80; 3785,100; 2285,700;34968,200; 4,58778
1274,06; 3822,300; 2342,500;34372,200; 4,62009
1278,32; 3780,200; 2321,300;33766,300; 4,63953
1282,57; 3768,100; 2318,100;33423,400; 4,66159
1286,82; 3737,900; 2307,600;32829,200; 4,68619
1291,06; 3771,500; 2356,700;32275,900; 4,72874
1295,30; 3736,900; 2338,100;31892,600; 4,73295
1299,53; 3741,300; 2338,200;31647,500; 4,78722
1303,76; 3708,500; 2323,600;31079,700; 4,81602
1307,99; 3741,000; 2367,800;30595,000; 4,86481
1312,20; 3714,000; 2359,900;30024,100; 4,89477
1316,42; 3603,800; 2280,800;29032,600; 4,94546
1320,63; 3604,200; 2300,900;28458,500; 4,98249
1324,83; 3527,600; 2245,000;27777,100; 5,02348
1329,03; 3575,400; 2317,800;27170,400; 5,06024
1333,23; 3505,300; 2274,500;26672,500; 5,04468
1337,42; 3548,600; 2337,300;26255,200; 5,06441
1341,60; 3452,600; 2270,000;25620,600; 5,06454
1345,78; 3474,000; 2322,700;25115,000; 5,05127
1349,96; 3361,700; 2241,600;24490,500; 5,03441
1354,13; 3355,200; 2280,700;23745,200; 5,00594
1358,29; 3275,100; 2244,300;23082,400; 4,94671
1362,46; 3297,000; 2319,600;22366,700; 4,87552
1366,61; 3249,600; 2323,300;21817,100; 4,75177
1370,76; 3143,900; 2261,900;21157,200; 4,66783
1374,91; 3194,000; 2372,400;20568,000; 4,51538
1379,05; 3042,400; 2274,100;19879,800; 4,36393
1383,18; 3128,100; 2400,400;19767,200; 4,19018
1387,32; 2941,000; 2240,200;19676,200; 4,01927
1391,44; 2945,200; 2273,200;19905,300; 3,81123
1395,56; 3096,000; 2416,900;20153,000; 3,82891
1399,68; 2925,500; 2211,300;20249,800; 3,95931
1403,79; 2991,500; 2272,300;20517,600; 3,94184
1407,90; 2956,100; 2245,600;20456,300; 3,90155
1412,00; 2974,400; 2271,700;20615,900; 3,83064
1416,10; 3015,200; 2318,300;20574,800; 3,81727
1420,19; 2970,400; 2266,200;20394,400; 3,88456
1424,27; 2997,300; 2289,200;20322,000; 3,92673
1428,36; 3023,800; 2300,300;20186,500; 4,04502
1432,43; 3050,200; 2322,800;20034,000; 4,10701
1436,50; 2990,100; 2262,400;19772,900; 4,15579
1440,57; 3057,100; 2312,900;19797,100; 4,25641
1444,63; 3034,600; 2279,300;19549,200; 4,37351
1448,69; 3000,500; 2235,800;19361,400; 4,46525
1452,74; 3048,100; 2272,400;19303,800; 4,55453
1456,79; 3015,600; 2232,800;19131,100; 4,63242
1460,83; 3055,000; 2263,600;18961,800; 4,73943
1464,87; 3139,000; 2350,200;18781,300; 4,80065
1468,90; 3119,800; 2310,200;18791,500; 4,91223
1472,93; 3121,000; 2306,900;18491,800; 5,03000
1476,95; 3135,800; 2315,800;18328,800; 5,12084
1480,96; 3117,000; 2282,900;18145,100; 5,25841
1484,98; 3121,100; 2291,100;18038,800; 5,27061
1488,98; 3125,900; 2297,500;17808,200; 5,34083
1492,98; 3137,900; 2311,900;17607,700; 5,40018
1496,98; 3106,100; 2283,500;17361,700; 5,45556
1500,97; 3132,100; 2313,000;17233,100; 5,48991
1504,96; 3041,500; 2226,000;17033,400; 5,50738
1508,94; 3122,100; 2304,800;17050,500; 5,54263
1512,92; 3058,500; 2244,700;16883,900; 5,55905
1516,89; 3066,800; 2245,000;16798,700; 5,64667
1520,85; 3058,600; 2249,200;16740,000; 5,58561
1524,81; 3148,800; 2344,200;16642,100; 5,62740
1528,77; 3033,100; 2238,800;16473,000; 5,58022
1532,72; 3047,600; 2252,300;16334,200; 5,64768
1536,67; 3126,800; 2346,800;16198,700; 5,63100
1540,61; 3036,200; 2261,900;15919,100; 5,66954
1544,54; 3072,200; 2298,100;15815,100; 5,72686
1548,47; 3015,300; 2230,000;15593,800; 5,87632
1552,40; 3061,500; 2281,600;15410,700; 5,94024
1556,32; 3054,600; 2276,600;15285,000; 5,98075
1560,23; 3035,000; 2270,100;14999,600; 6,00888
1564,15; 3053,800; 2284,800;14941,900; 6,07564
1568,05; 3034,000; 2254,700;14763,000; 6,23026
1571,95; 3062,300; 2299,800;14583,200; 6,20756
1575,84; 3022,900; 2264,700;14396,200; 6,24985
1579,73; 3022,500; 2278,600;14216,200; 6,23157
1583,62; 3035,200; 2291,000;14037,500; 6,33550
1587,50; 2970,800; 2227,300;13824,900; 6,41081
1591,37; 3080,200; 2341,500;13765,300; 6,46632
1595,24; 3022,800; 2290,900;13552,200; 6,49925
1599,11; 2950,200; 2218,500;13299,400; 6,60325
1602,96; 2957,900; 2233,800;13148,300; 6,63429
1606,82; 2910,900; 2199,200;12931,900; 6,63114
1610,67; 2957,100; 2259,900;12768,200; 6,63476
1614,51; 2943,100; 2253,600;12662,100; 6,62439
1618,35; 2879,000; 2200,500;12443,200; 6,62423
1622,18; 2927,600; 2259,000;12320,000; 6,64546
1626,01; 2919,300; 2261,500;12204,900; 6,61544
1629,83; 2912,400; 2264,200;12060,300; 6,61692
1633,65; 2922,900; 2285,600;11926,300; 6,61052
1637,46; 2857,300; 2232,700;11710,000; 6,59048
1641,27; 2862,600; 2240,500;11611,900; 6,63828
1645,07; 2833,300; 2223,100;11460,600; 6,60568
1648,86; 2850,700; 2252,200;11293,600; 6,61955
1652,66; 2834,800; 2239,700;11231,400; 6,61833
1656,44; 2819,500; 2248,900;11068,200; 6,46990
1660,22; 2843,700; 2279,900;10946,100; 6,50573
1664,00; 2839,900; 2293,300;10899,400; 6,35131
1667,77; 2786,900; 2255,400;10706,100; 6,28942
1671,53; 2771,900; 2267,200;10535,100; 6,10433
1675,29; 2711,900; 2218,100;10422,700; 6,01857
1679,05; 2735,200; 2268,300;10347,700; 5,77889
1682,80; 2694,600; 2250,400;10217,700; 5,57529
1686,54; 2718,500; 2284,500;10131,800; 5,53056
1690,28; 2675,900; 2278,500;10016,500; 5,13569
1694,01; 2590,700; 2220,600; 9797,600; 4,88452
1697,74; 2563,200; 2222,200; 9685,200; 4,56921
1701,46; 2561,900; 2264,100; 9639,900; 4,03753
1705,18; 2508,900; 2239,900; 9483,800; 3,71347
1708,89; 2428,400; 2178,500; 9321,400; 3,49858
1712,60; 2491,800; 2263,700; 9310,100; 3,23711
1716,30; 2517,700; 2296,000; 9229,900; 3,19733
1720,00; 2480,600; 2272,600; 9164,500; 3,01804
1723,69; 2477,400; 2274,100; 9040,800; 3,00442
1727,38; 2393,200; 2189,500; 8867,100; 3,05050
1731,06; 2462,600; 2257,500; 8834,400; 3,11849
1734,73; 2439,200; 2236,800; 8714,100; 3,12476
1738,40; 2430,800; 2214,400; 8628,400; 3,37387
1742,07; 2504,400; 2286,100; 8625,700; 3,44343
1745,73; 2472,900; 2245,800; 8533,600; 3,61176
1749,38; 2508,600; 2278,500; 8445,700; 3,73103

